%OpenBCI Raw EEG Data
%Number of channels = 8
%Sample Rate = 250.0 Hz
%First Column = SampleIndex
%Last Column = Timestamp 
%Other Columns = EEG data in microvolts followed by Accel Data (in G) interleaved with Aux Data
0, 15097.08, -2070.93, -18606.31, -18217.16, -20482.42, -17714.83, -19450.51, -12285.32, 0.060, 0.450, 0.208, 23:13:44.916, 1574396024916
1, 15091.81, -2045.23, -18633.06, -19148.87, -20495.81, -17794.45, -19443.33, -12419.79, 0.000, 0.000, 0.000, 23:13:44.923, 1574396024923
2, 15084.25, -2079.63, -18472.17, -17366.93, -20435.28, -17492.72, -19434.04, -12075.93, 0.000, 0.000, 0.000, 23:13:44.923, 1574396024923
3, 15095.88, -2101.38, -18418.91, -16182.42, -20411.43, -17366.81, -19435.22, -11888.04, 0.000, 0.000, 0.000, 23:13:44.930, 1574396024930
4, 15104.26, -2068.14, -18574.81, -17815.90, -20467.36, -17651.53, -19444.41, -12208.23, 0.000, 0.000, 0.000, 23:13:44.930, 1574396024930
5, 15121.27, -2012.80, -18619.47, -19197.40, -20474.98, -17789.53, -19417.79, -12413.58, 0.000, 0.000, 0.000, 23:13:44.940, 1574396024940
6, 15114.94, -2040.47, -18469.83, -17751.80, -20420.06, -17526.16, -19408.20, -12125.60, 0.000, 0.000, 0.000, 23:13:44.940, 1574396024940
7, 15093.89, -2109.98, -18406.33, -16174.88, -20408.64, -17355.41, -19439.80, -11887.91, 0.088, 0.678, 0.312, 23:13:44.946, 1574396024946
8, 15105.29, -2089.89, -18545.55, -17409.30, -20462.11, -17597.42, -19456.23, -12144.44, 0.000, 0.000, 0.000, 23:13:44.947, 1574396024947
9, 15125.34, -2023.44, -18629.71, -19153.01, -20483.92, -17799.97, -19430.13, -12420.01, 0.000, 0.000, 0.000, 23:13:44.956, 1574396024956
10, 15115.72, -2035.13, -18505.14, -18150.49, -20437.00, -17588.01, -19419.31, -12205.26, 0.000, 0.000, 0.000, 23:13:44.956, 1574396024956
11, 15088.83, -2099.97, -18401.14, -16266.08, -20406.07, -17348.87, -19443.31, -11894.41, 0.000, 0.000, 0.000, 23:13:44.961, 1574396024961
12, 15091.52, -2096.41, -18514.80, -17021.52, -20447.08, -17524.86, -19460.26, -12068.69, 0.000, 0.000, 0.000, 23:13:44.961, 1574396024961
13, 15105.91, -2038.59, -18636.41, -19006.31, -20488.23, -17789.73, -19449.86, -12404.52, 0.000, 0.000, 0.000, 23:13:44.968, 1574396024968
14, 15108.35, -2032.13, -18540.28, -18512.54, -20447.20, -17644.53, -19429.81, -12263.19, 0.000, 0.000, 0.000, 23:13:44.968, 1574396024968
15, 15094.36, -2089.93, -18400.11, -16463.76, -20397.40, -17353.36, -19440.03, -11900.94, 0.000, 0.000, 0.000, 23:13:44.975, 1574396024975
16, 15091.70, -2103.08, -18478.57, -16677.44, -20428.94, -17457.20, -19461.22, -11980.62, 0.000, 0.000, 0.000, 23:13:44.983, 1574396024983
17, 15105.17, -2045.10, -18630.31, -18754.16, -20480.25, -17756.65, -19455.67, -12345.54, 0.102, 0.792, 0.366, 23:13:44.983, 1574396024983
18, 15116.82, -2017.89, -18560.87, -18809.98, -20447.80, -17683.96, -19430.46, -12305.01, 0.000, 0.000, 0.000, 23:13:44.990, 1574396024990
19, 15104.28, -2070.26, -18403.26, -16746.64, -20390.20, -17369.81, -19433.99, -11932.43, 0.000, 0.000, 0.000, 23:13:44.991, 1574396024991
20, 15104.68, -2090.65, -18435.52, -16409.11, -20403.57, -17386.79, -19452.25, -11912.47, 0.000, 0.000, 0.000, 23:13:44.999, 1574396024999
21, 15110.92, -2049.95, -18602.11, -18420.94, -20464.61, -17702.18, -19456.08, -12279.78, 0.000, 0.000, 0.000, 23:13:44.999, 1574396024999
22, 15120.44, -2014.00, -18587.73, -19032.29, -20453.75, -17724.62, -19435.24, -12340.96, 0.000, 0.000, 0.000, 23:13:45.007, 1574396025007
23, 15109.76, -2060.52, -18426.02, -17111.24, -20397.69, -17414.69, -19440.00, -11991.31, 0.000, 0.000, 0.000, 23:13:45.007, 1574396025007
24, 15095.61, -2101.27, -18423.54, -16241.38, -20405.91, -17354.59, -19465.20, -11878.25, 0.000, 0.000, 0.000, 23:13:45.014, 1574396025014
25, 15109.29, -2053.75, -18574.84, -18036.38, -20457.37, -17642.52, -19458.36, -12205.42, 0.000, 0.000, 0.000, 23:13:45.014, 1574396025014
26, 15119.19, -2011.63, -18597.79, -19155.96, -20462.15, -17751.78, -19441.64, -12370.53, 0.000, 0.000, 0.000, 23:13:45.021, 1574396025021
27, 15112.75, -2046.08, -18441.11, -17503.23, -20404.82, -17469.12, -19432.40, -12049.18, 0.112, 0.848, 0.396, 23:13:45.021, 1574396025021
28, 15101.24, -2091.32, -18391.75, -16147.37, -20390.56, -17327.92, -19453.44, -11846.94, 0.000, 0.000, 0.000, 23:13:45.030, 1574396025030
29, 15108.68, -2062.95, -18542.87, -17629.31, -20450.64, -17596.01, -19467.45, -12145.65, 0.000, 0.000, 0.000, 23:13:45.031, 1574396025031
30, 15111.97, -2021.07, -18625.17, -19191.25, -20482.38, -17780.34, -19458.00, -12397.08, 0.000, 0.000, 0.000, 23:13:45.036, 1574396025036
31, 15105.40, -2045.72, -18497.16, -17927.35, -20434.66, -17544.11, -19452.43, -12144.24, 0.000, 0.000, 0.000, 23:13:45.045, 1574396025045
32, 15101.20, -2094.22, -18400.76, -16197.21, -20394.67, -17322.31, -19457.35, -11854.22, 0.000, 0.000, 0.000, 23:13:45.045, 1574396025045
33, 15108.48, -2078.09, -18519.85, -17236.73, -20441.03, -17531.19, -19469.08, -12071.01, 0.000, 0.000, 0.000, 23:13:45.052, 1574396025052
34, 15124.73, -2021.29, -18626.18, -19099.36, -20477.68, -17773.39, -19456.32, -12380.92, 0.000, 0.000, 0.000, 23:13:45.052, 1574396025052
35, 15115.28, -2027.35, -18512.63, -18299.06, -20435.66, -17593.77, -19440.74, -12199.72, 0.000, 0.000, 0.000, 23:13:45.058, 1574396025058
36, 15102.09, -2080.61, -18389.14, -16333.56, -20395.83, -17333.26, -19454.11, -11868.37, 0.000, 0.000, 0.000, 23:13:45.059, 1574396025059
37, 15108.48, -2081.44, -18483.39, -16866.45, -20433.16, -17473.83, -19468.97, -12003.00, 0.120, 0.876, 0.408, 23:13:45.066, 1574396025066
38, 15130.10, -2018.63, -18615.47, -18900.01, -20474.89, -17746.73, -19454.85, -12352.18, 0.000, 0.000, 0.000, 23:13:45.066, 1574396025066
39, 15131.28, -2010.03, -18535.21, -18628.70, -20439.26, -17636.91, -19431.96, -12256.18, 0.000, 0.000, 0.000, 23:13:45.073, 1574396025073
40, 15117.47, -2066.28, -18393.41, -16549.95, -20387.12, -17336.35, -19436.50, -11886.59, 0.000, 0.000, 0.000, 23:13:45.073, 1574396025073
41, 15113.36, -2078.33, -18449.82, -16542.50, -20409.60, -17401.55, -19453.04, -11924.03, 0.000, 0.000, 0.000, 23:13:45.082, 1574396025082
42, 15122.70, -2034.28, -18617.28, -18622.00, -20472.57, -17721.71, -19460.01, -12305.93, 0.000, 0.000, 0.000, 23:13:45.082, 1574396025082
43, 15123.26, -2014.03, -18576.94, -18903.52, -20456.38, -17693.60, -19445.03, -12314.27, 0.000, 0.000, 0.000, 23:13:45.090, 1574396025090
44, 15097.75, -2066.93, -18427.02, -16894.79, -20408.93, -17389.68, -19451.92, -11954.41, 0.000, 0.000, 0.000, 23:13:45.090, 1574396025090
45, 15091.99, -2097.33, -18449.40, -16349.16, -20426.28, -17382.82, -19477.91, -11905.81, 0.000, 0.000, 0.000, 23:13:45.097, 1574396025097
46, 15109.09, -2055.78, -18607.67, -18290.54, -20483.67, -17692.66, -19478.45, -12264.51, 0.000, 0.000, 0.000, 23:13:45.105, 1574396025105
47, 15123.06, -2015.64, -18605.41, -19103.07, -20477.95, -17745.85, -19454.11, -12363.22, 0.000, 0.000, 0.000, 23:13:45.105, 1574396025105
48, 15116.01, -2053.39, -18443.21, -17276.56, -20416.51, -17444.26, -19445.08, -12017.37, 0.116, 0.894, 0.418, 23:13:45.111, 1574396025111
49, 15108.84, -2091.63, -18414.24, -16205.55, -20407.88, -17342.61, -19462.18, -11866.61, 0.000, 0.000, 0.000, 23:13:45.112, 1574396025112
50, 15114.27, -2061.12, -18577.32, -17898.16, -20471.13, -17641.85, -19475.63, -12198.29, 0.000, 0.000, 0.000, 23:13:45.120, 1574396025120
51, 15124.17, -2003.32, -18616.63, -19187.09, -20477.26, -17763.65, -19444.94, -12377.32, 0.000, 0.000, 0.000, 23:13:45.120, 1574396025120
52, 15107.01, -2041.65, -18475.88, -17673.68, -20426.63, -17496.92, -19440.00, -12080.96, 0.000, 0.000, 0.000, 23:13:45.125, 1574396025125
53, 15087.76, -2102.78, -18421.66, -16180.74, -20416.31, -17335.88, -19470.71, -11857.49, 0.000, 0.000, 0.000, 23:13:45.125, 1574396025125
54, 15089.64, -2083.52, -18568.69, -17505.64, -20473.10, -17584.77, -19483.93, -12127.07, 0.000, 0.000, 0.000, 23:13:45.133, 1574396025133
55, 15101.60, -2028.80, -18656.15, -19195.03, -20501.67, -17787.79, -19467.38, -12398.94, 0.000, 0.000, 0.000, 23:13:45.133, 1574396025133
56, 15101.80, -2044.83, -18525.62, -18094.90, -20451.31, -17568.22, -19454.38, -12168.00, 0.000, 0.000, 0.000, 23:13:45.141, 1574396025141
57, 15088.08, -2098.94, -18418.82, -16262.50, -20418.83, -17336.44, -19469.87, -11866.97, 0.000, 0.000, 0.000, 23:13:45.142, 1574396025142
58, 15084.28, -2099.10, -18543.21, -17127.76, -20475.11, -17533.20, -19492.38, -12065.67, 0.124, 0.904, 0.424, 23:13:45.149, 1574396025149
59, 15100.03, -2047.24, -18671.78, -19081.93, -20522.43, -17796.37, -19486.16, -12398.09, 0.000, 0.000, 0.000, 23:13:45.149, 1574396025149
60, 15119.90, -2023.66, -18550.29, -18457.38, -20464.63, -17625.51, -19450.29, -12229.29, 0.000, 0.000, 0.000, 23:13:45.156, 1574396025156
61, 15100.75, -2077.80, -18412.52, -16433.02, -20416.57, -17345.49, -19457.08, -11879.48, 0.000, 0.000, 0.000, 23:13:45.156, 1574396025156
62, 15102.16, -2088.17, -18497.10, -16771.99, -20452.54, -17457.92, -19476.42, -11981.18, 0.000, 0.000, 0.000, 23:13:45.163, 1574396025163
63, 15119.57, -2028.49, -18641.49, -18835.30, -20499.39, -17751.89, -19466.25, -12339.97, 0.000, 0.000, 0.000, 23:13:45.171, 1574396025171
64, 15118.00, -2016.40, -18579.24, -18774.71, -20473.44, -17678.87, -19449.84, -12292.48, 0.000, 0.000, 0.000, 23:13:45.171, 1574396025171
65, 15100.55, -2078.33, -18434.58, -16719.71, -20427.35, -17384.27, -19464.59, -11938.98, 0.000, 0.000, 0.000, 23:13:45.178, 1574396025178
66, 15086.04, -2111.77, -18489.27, -16515.50, -20457.68, -17438.88, -19494.77, -11956.98, 0.000, 0.000, 0.000, 23:13:45.178, 1574396025178
67, 15103.30, -2055.73, -18643.34, -18544.44, -20511.84, -17743.42, -19487.46, -12318.54, 0.000, 0.000, 0.000, 23:13:45.185, 1574396025185
68, 15113.76, -2020.96, -18615.13, -19022.61, -20495.01, -17733.96, -19458.73, -12348.18, 0.124, 0.904, 0.424, 23:13:45.185, 1574396025185
69, 15093.08, -2070.71, -18459.39, -17057.40, -20439.82, -17425.82, -19457.17, -11985.38, 0.000, 0.000, 0.000, 23:13:45.195, 1574396025195
70, 15079.18, -2109.27, -18470.07, -16312.95, -20451.04, -17388.70, -19483.48, -11900.65, 0.000, 0.000, 0.000, 23:13:45.195, 1574396025195
71, 15098.49, -2060.54, -18630.00, -18174.96, -20510.07, -17690.11, -19488.06, -12252.87, 0.000, 0.000, 0.000, 23:13:45.202, 1574396025202
72, 15122.79, -2008.89, -18633.91, -19170.67, -20505.18, -17762.55, -19455.83, -12383.02, 0.000, 0.000, 0.000, 23:13:45.202, 1574396025202
73, 15108.24, -2048.36, -18478.43, -17444.29, -20449.92, -17477.48, -19452.43, -12056.93, 0.000, 0.000, 0.000, 23:13:45.209, 1574396025209
74, 15088.10, -2102.81, -18445.24, -16210.13, -20448.87, -17369.58, -19483.30, -11886.52, 0.000, 0.000, 0.000, 23:13:45.209, 1574396025209
75, 15096.35, -2074.26, -18598.48, -17772.38, -20507.32, -17639.37, -19493.65, -12195.33, 0.000, 0.000, 0.000, 23:13:45.218, 1574396025218
76, 15117.47, -2018.25, -18652.55, -19224.56, -20519.01, -17789.80, -19463.88, -12403.27, 0.000, 0.000, 0.000, 23:13:45.218, 1574396025218
77, 15109.09, -2043.28, -18509.55, -17855.78, -20465.46, -17540.06, -19456.01, -12130.34, 0.000, 0.000, 0.000, 23:13:45.224, 1574396025224
78, 15095.09, -2101.94, -18441.51, -16216.48, -20448.38, -17350.68, -19480.86, -11872.22, 0.128, 0.904, 0.420, 23:13:45.230, 1574396025230
79, 15091.94, -2080.93, -18574.50, -17366.12, -20501.89, -17573.30, -19493.76, -12110.42, 0.000, 0.000, 0.000, 23:13:45.230, 1574396025230
80, 15109.51, -2021.78, -18669.56, -19166.44, -20534.01, -17799.56, -19478.16, -12409.69, 0.000, 0.000, 0.000, 23:13:45.238, 1574396025238
81, 15107.54, -2035.31, -18553.98, -18251.43, -20491.25, -17605.28, -19465.40, -12210.42, 0.000, 0.000, 0.000, 23:13:45.238, 1574396025238
82, 15077.32, -2110.79, -18454.49, -16347.08, -20470.13, -17371.02, -19496.60, -11904.32, 0.000, 0.000, 0.000, 23:13:45.247, 1574396025247
83, 15086.56, -2099.10, -18549.35, -17004.31, -20503.39, -17528.84, -19507.84, -12058.81, 0.000, 0.000, 0.000, 23:13:45.247, 1574396025247
84, 15122.21, -2025.29, -18664.31, -18999.88, -20532.98, -17788.86, -19479.52, -12386.73, 0.000, 0.000, 0.000, 23:13:45.254, 1574396025254
85, 15127.64, -2012.86, -18574.01, -18600.16, -20493.58, -17655.75, -19456.79, -12267.04, 0.000, 0.000, 0.000, 23:13:45.254, 1574396025254
86, 15104.39, -2072.10, -18440.57, -16540.65, -20449.39, -17369.85, -19471.43, -11909.25, 0.000, 0.000, 0.000, 23:13:45.260, 1574396025260
87, 15100.44, -2090.16, -18514.87, -16670.15, -20482.06, -17459.04, -19493.51, -11979.44, 0.000, 0.000, 0.000, 23:13:45.261, 1574396025261
88, 15112.86, -2035.04, -18666.54, -18738.67, -20538.06, -17768.41, -19492.31, -12351.91, 0.126, 0.910, 0.420, 23:13:45.268, 1574396025268
89, 15124.49, -2006.65, -18618.35, -18897.37, -20522.07, -17724.51, -19475.99, -12342.79, 0.000, 0.000, 0.000, 23:13:45.269, 1574396025269
90, 15112.91, -2061.01, -18465.60, -16855.16, -20468.77, -17414.06, -19476.88, -11972.64, 0.000, 0.000, 0.000, 23:13:45.276, 1574396025276
91, 15099.74, -2100.57, -18490.14, -16415.05, -20476.32, -17417.75, -19489.98, -11931.07, 0.000, 0.000, 0.000, 23:13:45.276, 1574396025276
92, 15108.48, -2053.43, -18644.30, -18389.72, -20527.60, -17725.02, -19484.78, -12293.17, 0.000, 0.000, 0.000, 23:13:45.282, 1574396025282
93, 15119.99, -2018.63, -18640.53, -19100.50, -20523.57, -17767.69, -19471.39, -12381.95, 0.000, 0.000, 0.000, 23:13:45.291, 1574396025291
94, 15114.41, -2059.18, -18486.52, -17221.62, -20470.98, -17466.86, -19472.04, -12028.08, 0.000, 0.000, 0.000, 23:13:45.291, 1574396025291
95, 15113.04, -2097.53, -18476.20, -16264.11, -20476.46, -17394.44, -19496.33, -11901.90, 0.000, 0.000, 0.000, 23:13:45.299, 1574396025299
96, 15119.64, -2056.99, -18621.62, -18018.97, -20531.62, -17684.97, -19499.17, -12233.44, 0.000, 0.000, 0.000, 23:13:45.299, 1574396025299
97, 15120.75, -2017.71, -18656.49, -19219.30, -20539.75, -17801.85, -19479.57, -12410.49, 0.000, 0.000, 0.000, 23:13:45.306, 1574396025306
98, 15105.31, -2057.05, -18516.97, -17639.30, -20494.85, -17537.11, -19484.02, -12115.16, 0.124, 0.912, 0.418, 23:13:45.306, 1574396025306
99, 15091.47, -2119.15, -18474.59, -16231.21, -20496.26, -17393.01, -19518.41, -11906.80, 0.000, 0.000, 0.000, 23:13:45.313, 1574396025313
100, 15120.82, -2077.84, -18604.29, -17625.74, -20539.04, -17631.66, -19516.78, -12175.40, 0.000, 0.000, 0.000, 23:13:45.313, 1574396025313
101, 15128.69, -2018.16, -18676.74, -19226.23, -20559.58, -17817.11, -19495.35, -12430.05, 0.000, 0.000, 0.000, 23:13:45.321, 1574396025321
102, 15124.40, -2034.39, -18546.61, -18028.60, -20510.56, -17587.69, -19483.52, -12184.94, 0.000, 0.000, 0.000, 23:13:45.321, 1574396025321
103, 15107.36, -2094.00, -18448.35, -16258.84, -20479.90, -17365.88, -19500.47, -11893.79, 0.000, 0.000, 0.000, 23:13:45.329, 1574396025329
104, 15094.65, -2099.75, -18587.64, -17236.19, -20538.17, -17581.39, -19527.24, -12114.40, 0.000, 0.000, 0.000, 23:13:45.329, 1574396025329
105, 15116.95, -2032.60, -18697.10, -19139.48, -20569.24, -17824.89, -19505.00, -12425.83, 0.000, 0.000, 0.000, 23:13:45.335, 1574396025335
106, 15123.12, -2028.96, -18580.11, -18408.05, -20515.82, -17640.60, -19476.08, -12245.16, 0.000, 0.000, 0.000, 23:13:45.335, 1574396025335
107, 15102.16, -2093.53, -18455.92, -16416.91, -20474.69, -17374.66, -19491.77, -11910.66, 0.000, 0.000, 0.000, 23:13:45.342, 1574396025342
108, 15093.64, -2101.89, -18560.20, -16875.14, -20517.27, -17517.42, -19515.33, -12038.58, 0.120, 0.908, 0.424, 23:13:45.351, 1574396025351
109, 15114.58, -2041.16, -18696.88, -18925.71, -20567.20, -17805.09, -19505.94, -12393.86, 0.000, 0.000, 0.000, 23:13:45.351, 1574396025351
110, 15118.58, -2025.98, -18616.77, -18740.64, -20535.26, -17705.17, -19484.62, -12316.19, 0.000, 0.000, 0.000, 23:13:45.359, 1574396025359
111, 15102.49, -2082.94, -18466.88, -16666.27, -20482.11, -17407.11, -19492.51, -11953.73, 0.000, 0.000, 0.000, 23:13:45.359, 1574396025359
112, 15103.21, -2098.67, -18521.59, -16568.03, -20507.50, -17465.12, -19512.16, -11983.91, 0.000, 0.000, 0.000, 23:13:45.366, 1574396025366
113, 15114.09, -2047.80, -18678.66, -18622.67, -20563.83, -17774.08, -19509.65, -12352.60, 0.000, 0.000, 0.000, 23:13:45.366, 1574396025366
114, 15126.83, -2018.94, -18647.93, -18998.78, -20542.91, -17757.34, -19481.89, -12369.32, 0.000, 0.000, 0.000, 23:13:45.374, 1574396025374
115, 15122.97, -2062.04, -18488.04, -17005.07, -20485.28, -17448.11, -19477.91, -11998.77, 0.000, 0.000, 0.000, 23:13:45.374, 1574396025374
116, 15096.84, -2098.40, -18504.92, -16366.30, -20500.55, -17424.68, -19506.46, -11936.12, 0.000, 0.000, 0.000, 23:13:45.382, 1574396025382
117, 15108.68, -2056.38, -18665.65, -18274.58, -20560.38, -17728.44, -19509.34, -12293.17, 0.000, 0.000, 0.000, 23:13:45.382, 1574396025382
118, 15119.41, -2018.61, -18679.31, -19181.73, -20565.77, -17800.01, -19491.99, -12416.30, 0.122, 0.910, 0.424, 23:13:45.388, 1574396025388
119, 15110.58, -2054.59, -18516.50, -17392.47, -20501.00, -17496.03, -19478.03, -12067.08, 0.000, 0.000, 0.000, 23:13:45.388, 1574396025388
120, 15100.93, -2099.54, -18484.96, -16237.92, -20492.79, -17386.13, -19494.99, -11898.57, 0.000, 0.000, 0.000, 23:13:45.397, 1574396025397
121, 15110.34, -2070.73, -18645.40, -17879.18, -20558.78, -17677.19, -19511.20, -12226.76, 0.000, 0.000, 0.000, 23:13:45.397, 1574396025397
122, 15136.82, -2010.00, -18689.12, -19242.93, -20566.53, -17812.15, -19482.21, -12421.76, 0.000, 0.000, 0.000, 23:13:45.404, 1574396025404
123, 15126.14, -2035.35, -18537.04, -17785.35, -20509.56, -17550.86, -19473.02, -12135.81, 0.000, 0.000, 0.000, 23:13:45.404, 1574396025404
124, 15098.89, -2101.20, -18483.51, -16229.11, -20501.96, -17385.19, -19508.11, -11907.47, 0.000, 0.000, 0.000, 23:13:45.412, 1574396025412
125, 15102.20, -2085.69, -18622.91, -17486.28, -20560.52, -17628.44, -19523.67, -12164.53, 0.000, 0.000, 0.000, 23:13:45.417, 1574396025417
126, 15120.60, -2026.43, -18706.46, -19210.97, -20581.53, -17830.23, -19492.98, -12426.45, 0.000, 0.000, 0.000, 23:13:45.417, 1574396025417
127, 15119.01, -2036.78, -18582.39, -18183.88, -20529.41, -17616.79, -19474.02, -12204.97, 0.000, 0.000, 0.000, 23:13:45.425, 1574396025425
128, 15110.47, -2094.20, -18475.62, -16313.96, -20496.39, -17376.58, -19489.76, -11897.01, 0.000, 0.000, 0.000, 23:13:45.425, 1574396025425
129, 15112.68, -2085.40, -18585.94, -17089.85, -20537.70, -17554.77, -19502.59, -12072.87, 0.122, 0.908, 0.414, 23:13:45.433, 1574396025433
130, 15126.90, -2027.10, -18708.16, -19067.63, -20577.08, -17822.56, -19489.92, -12411.41, 0.000, 0.000, 0.000, 23:13:45.433, 1574396025433
131, 15110.18, -2040.87, -18628.57, -18563.62, -20554.60, -17696.01, -19488.31, -12293.84, 0.000, 0.000, 0.000, 23:13:45.441, 1574396025441
132, 15088.43, -2102.34, -18505.52, -16537.99, -20517.94, -17421.42, -19510.14, -11953.33, 0.000, 0.000, 0.000, 23:13:45.441, 1574396025441
133, 15091.00, -2105.91, -18573.23, -16778.31, -20543.00, -17528.39, -19524.52, -12037.62, 0.000, 0.000, 0.000, 23:13:45.449, 1574396025449
134, 15110.34, -2049.34, -18719.25, -18847.86, -20598.54, -17828.18, -19520.47, -12406.02, 0.000, 0.000, 0.000, 23:13:45.449, 1574396025449
135, 15125.20, -2021.87, -18651.55, -18886.84, -20568.70, -17755.40, -19491.66, -12358.41, 0.000, 0.000, 0.000, 23:13:45.456, 1574396025456
136, 15107.61, -2083.83, -18503.69, -16835.22, -20516.64, -17454.16, -19499.17, -11991.91, 0.000, 0.000, 0.000, 23:13:45.457, 1574396025457
137, 15093.89, -2108.17, -18548.21, -16525.11, -20539.64, -17483.11, -19525.34, -11985.43, 0.000, 0.000, 0.000, 23:13:45.463, 1574396025463
138, 15113.65, -2048.74, -18701.99, -18537.55, -20593.31, -17790.56, -19520.58, -12351.98, 0.000, 0.000, 0.000, 23:13:45.463, 1574396025463
139, 15120.13, -2021.02, -18688.40, -19118.05, -20582.20, -17802.98, -19495.84, -12405.11, 0.120, 0.906, 0.412, 23:13:45.470, 1574396025470
140, 15106.60, -2069.48, -18527.63, -17182.46, -20524.13, -17496.03, -19492.11, -12042.92, 0.000, 0.000, 0.000, 23:13:45.477, 1574396025477
141, 15102.36, -2107.19, -18522.94, -16336.02, -20529.74, -17441.49, -19513.99, -11938.60, 0.000, 0.000, 0.000, 23:13:45.477, 1574396025477
142, 15121.45, -2061.72, -18683.29, -18152.83, -20587.52, -17737.09, -19517.97, -12282.75, 0.000, 0.000, 0.000, 23:13:45.486, 1574396025486
143, 15122.94, -2019.84, -18710.09, -19240.36, -20590.78, -17832.53, -19495.66, -12434.21, 0.000, 0.000, 0.000, 23:13:45.486, 1574396025486
144, 15106.76, -2057.34, -18559.59, -17568.87, -20537.65, -17552.85, -19495.26, -12116.70, 0.000, 0.000, 0.000, 23:13:45.493, 1574396025493
145, 15099.50, -2103.46, -18510.75, -16250.92, -20528.56, -17414.85, -19517.43, -11922.58, 0.000, 0.000, 0.000, 23:13:45.494, 1574396025494
146, 15106.22, -2073.77, -18666.14, -17748.07, -20588.44, -17681.64, -19529.70, -12222.20, 0.000, 0.000, 0.000, 23:13:45.503, 1574396025503
147, 15122.61, -2015.68, -18732.01, -19270.09, -20608.40, -17850.24, -19506.57, -12452.63, 0.000, 0.000, 0.000, 23:13:45.503, 1574396025503
148, 15114.67, -2040.07, -18582.59, -17964.01, -20552.74, -17608.90, -19492.80, -12187.51, 0.000, 0.000, 0.000, 23:13:45.508, 1574396025508
149, 15103.56, -2095.74, -18496.07, -16263.22, -20530.61, -17407.58, -19514.90, -11917.26, 0.114, 0.904, 0.416, 23:13:45.509, 1574396025509
150, 15100.12, -2091.14, -18641.71, -17354.50, -20595.37, -17638.14, -19542.00, -12158.59, 0.000, 0.000, 0.000, 23:13:45.515, 1574396025515
151, 15120.11, -2034.86, -18747.75, -19200.80, -20634.50, -17874.04, -19530.44, -12468.52, 0.000, 0.000, 0.000, 23:13:45.515, 1574396025515
152, 15133.49, -2021.00, -18617.46, -18358.63, -20574.31, -17673.17, -19498.03, -12265.79, 0.000, 0.000, 0.000, 23:13:45.523, 1574396025523
153, 15115.90, -2084.90, -18504.25, -16408.66, -20537.32, -17417.53, -19514.46, -11935.18, 0.000, 0.000, 0.000, 23:13:45.523, 1574396025523
154, 15113.62, -2087.52, -18606.51, -16984.13, -20576.46, -17564.69, -19528.49, -12077.23, 0.000, 0.000, 0.000, 23:13:45.530, 1574396025530
155, 15124.29, -2029.65, -18748.06, -19024.42, -20621.27, -17847.04, -19515.73, -12429.71, 0.000, 0.000, 0.000, 23:13:45.538, 1574396025538
156, 15126.61, -2026.77, -18668.15, -18721.93, -20588.50, -17733.92, -19497.00, -12332.17, 0.000, 0.000, 0.000, 23:13:45.538, 1574396025538
157, 15109.11, -2083.81, -18522.58, -16657.12, -20536.09, -17441.38, -19500.91, -11964.62, 0.000, 0.000, 0.000, 23:13:45.547, 1574396025547
158, 15107.88, -2102.90, -18592.72, -16694.00, -20567.16, -17519.79, -19524.85, -12022.09, 0.000, 0.000, 0.000, 23:13:45.547, 1574396025547
159, 15122.92, -2054.33, -18747.17, -18760.87, -20624.89, -17830.37, -19524.05, -12395.20, 0.120, 0.896, 0.422, 23:13:45.553, 1574396025553
160, 15124.33, -2022.81, -18694.98, -18999.23, -20601.00, -17792.52, -19501.20, -12392.70, 0.000, 0.000, 0.000, 23:13:45.553, 1574396025553
161, 15106.34, -2073.15, -18540.17, -16970.70, -20549.10, -17485.57, -19507.75, -12028.28, 0.000, 0.000, 0.000, 23:13:45.560, 1574396025560
162, 15101.78, -2102.61, -18558.21, -16445.99, -20561.12, -17474.86, -19523.18, -11968.55, 0.000, 0.000, 0.000, 23:13:45.561, 1574396025561
163, 15115.61, -2053.14, -18720.10, -18405.30, -20621.85, -17786.49, -19525.86, -12332.40, 0.000, 0.000, 0.000, 23:13:45.568, 1574396025568
164, 15122.36, -2022.81, -18723.70, -19194.96, -20619.42, -17835.10, -19509.16, -12435.46, 0.000, 0.000, 0.000, 23:13:45.568, 1574396025568
165, 15108.73, -2070.58, -18572.47, -17347.90, -20569.33, -17538.38, -19513.79, -12094.44, 0.000, 0.000, 0.000, 23:13:45.575, 1574396025575
166, 15100.30, -2110.25, -18553.87, -16308.44, -20567.56, -17449.80, -19535.92, -11950.74, 0.000, 0.000, 0.000, 23:13:45.575, 1574396025575
167, 15119.81, -2070.58, -18709.35, -18017.61, -20625.45, -17745.32, -19543.96, -12282.13, 0.000, 0.000, 0.000, 23:13:45.583, 1574396025583
168, 15134.01, -2013.94, -18742.47, -19281.04, -20627.51, -17860.54, -19509.83, -12460.67, 0.000, 0.000, 0.000, 23:13:45.583, 1574396025583
169, 15121.67, -2047.93, -18597.52, -17744.65, -20577.75, -17591.02, -19506.70, -12161.14, 0.118, 0.898, 0.424, 23:13:45.590, 1574396025590
170, 15100.12, -2109.02, -18541.58, -16263.29, -20568.23, -17440.26, -19538.98, -11943.25, 0.000, 0.000, 0.000, 23:13:45.598, 1574396025598
171, 15104.06, -2083.52, -18681.19, -17606.74, -20620.36, -17690.89, -19546.38, -12215.97, 0.000, 0.000, 0.000, 23:13:45.598, 1574396025598
172, 15118.09, -2024.53, -18762.66, -19270.31, -20645.19, -17891.05, -19525.01, -12480.92, 0.000, 0.000, 0.000, 23:13:45.606, 1574396025606
173, 15096.32, -2062.60, -18652.33, -18165.02, -20614.81, -17688.88, -19530.71, -12263.46, 0.000, 0.000, 0.000, 23:13:45.606, 1574396025606
174, 15093.82, -2110.38, -18538.07, -16338.66, -20573.80, -17439.37, -19533.88, -11945.24, 0.000, 0.000, 0.000, 23:13:45.613, 1574396025613
175, 15114.90, -2081.73, -18637.26, -17211.54, -20602.83, -17612.97, -19530.75, -12124.55, 0.000, 0.000, 0.000, 23:13:45.614, 1574396025614
176, 15121.94, -2033.05, -18758.50, -19154.66, -20643.33, -17876.57, -19522.88, -12459.49, 0.000, 0.000, 0.000, 23:13:45.621, 1574396025621
177, 15115.21, -2035.95, -18660.11, -18533.11, -20607.84, -17723.70, -19509.21, -12308.88, 0.000, 0.000, 0.000, 23:13:45.621, 1574396025621
178, 15103.81, -2092.50, -18526.00, -16506.36, -20560.97, -17438.41, -19514.90, -11952.26, 0.000, 0.000, 0.000, 23:13:45.627, 1574396025627
179, 15102.16, -2096.24, -18609.93, -16874.09, -20593.94, -17560.74, -19533.28, -12061.47, 0.124, 0.900, 0.428, 23:13:45.627, 1574396025627
180, 15113.15, -2043.24, -18759.24, -18938.48, -20648.54, -17859.91, -19529.66, -12426.21, 0.000, 0.000, 0.000, 23:13:45.635, 1574396025635
181, 15114.34, -2030.66, -18694.82, -18846.48, -20622.03, -17777.73, -19510.75, -12364.69, 0.000, 0.000, 0.000, 23:13:45.635, 1574396025635
182, 15108.42, -2079.41, -18534.22, -16770.60, -20561.88, -17465.45, -19511.31, -11991.96, 0.000, 0.000, 0.000, 23:13:45.646, 1574396025646
183, 15111.01, -2096.62, -18582.37, -16576.37, -20583.86, -17504.92, -19527.94, -12001.75, 0.000, 0.000, 0.000, 23:13:45.646, 1574396025646
184, 15126.14, -2042.64, -18739.54, -18611.94, -20643.69, -17815.37, -19523.38, -12368.52, 0.000, 0.000, 0.000, 23:13:45.651, 1574396025651
185, 15140.00, -2004.71, -18705.21, -19059.76, -20624.80, -17801.64, -19496.02, -12396.08, 0.000, 0.000, 0.000, 23:13:45.652, 1574396025652
186, 15130.21, -2050.50, -18546.20, -17080.29, -20570.91, -17495.47, -19503.17, -12041.93, 0.000, 0.000, 0.000, 23:13:45.657, 1574396025657
187, 15120.44, -2085.24, -18555.37, -16354.01, -20579.92, -17463.13, -19531.42, -11963.84, 0.000, 0.000, 0.000, 23:13:45.665, 1574396025665
188, 15134.57, -2039.31, -18717.66, -18235.13, -20640.49, -17770.40, -19533.44, -12313.62, 0.000, 0.000, 0.000, 23:13:45.665, 1574396025665
189, 15141.50, -2000.82, -18738.36, -19224.40, -20646.17, -17850.79, -19514.28, -12447.42, 0.122, 0.908, 0.424, 23:13:45.673, 1574396025673
190, 15121.60, -2052.07, -18595.09, -17497.41, -20605.42, -17579.80, -19527.62, -12137.35, 0.000, 0.000, 0.000, 23:13:45.673, 1574396025673
191, 15114.38, -2102.00, -18560.24, -16280.36, -20604.80, -17473.83, -19556.30, -11967.77, 0.000, 0.000, 0.000, 23:13:45.680, 1574396025680
192, 15124.93, -2061.17, -18703.18, -17850.75, -20655.07, -17736.62, -19552.84, -12262.46, 0.000, 0.000, 0.000, 23:13:45.680, 1574396025680
193, 15130.50, -2020.46, -18769.05, -19294.67, -20679.25, -17898.94, -19538.60, -12490.09, 0.000, 0.000, 0.000, 23:13:45.688, 1574396025688
194, 15109.80, -2051.09, -18630.07, -17916.64, -20630.90, -17649.88, -19534.51, -12216.66, 0.000, 0.000, 0.000, 23:13:45.688, 1574396025688
195, 15102.16, -2093.29, -18537.75, -16275.38, -20591.77, -17444.24, -19538.20, -11942.11, 0.000, 0.000, 0.000, 23:13:45.696, 1574396025696
196, 15115.41, -2070.91, -18665.43, -17451.53, -20636.63, -17666.64, -19543.22, -12181.10, 0.000, 0.000, 0.000, 23:13:45.697, 1574396025697
197, 15135.08, -2015.72, -18761.90, -19246.24, -20667.29, -17891.34, -19524.90, -12473.75, 0.000, 0.000, 0.000, 23:13:45.706, 1574396025706
198, 15130.07, -2028.31, -18646.32, -18311.00, -20624.20, -17697.11, -19517.01, -12274.93, 0.000, 0.000, 0.000, 23:13:45.706, 1574396025706
199, 15116.13, -2087.27, -18526.06, -16393.93, -20585.55, -17446.12, -19532.27, -11951.61, 0.000, 0.000, 0.000, 23:13:45.710, 1574396025710
200, 15120.04, -2087.81, -18640.59, -17087.37, -20632.16, -17618.31, -19552.21, -12118.89, 0.126, 0.906, 0.410, 23:13:45.710, 1574396025710
201, 15132.42, -2031.21, -18775.20, -19092.68, -20682.36, -17888.46, -19540.52, -12459.96, 0.000, 0.000, 0.000, 23:13:45.717, 1574396025717
202, 15129.27, -2023.68, -18684.78, -18666.90, -20646.64, -17752.92, -19522.17, -12342.16, 0.000, 0.000, 0.000, 23:13:45.725, 1574396025725
203, 15110.05, -2080.30, -18540.53, -16606.59, -20601.02, -17467.64, -19535.31, -11985.12, 0.000, 0.000, 0.000, 23:13:45.725, 1574396025725
204, 15107.79, -2088.84, -18612.90, -16754.35, -20629.90, -17559.17, -19554.13, -12056.89, 0.000, 0.000, 0.000, 23:13:45.732, 1574396025732
205, 15119.97, -2034.88, -18770.26, -18829.76, -20684.91, -17864.90, -19550.73, -12427.61, 0.000, 0.000, 0.000, 23:13:45.732, 1574396025732
206, 15112.55, -2028.02, -18737.49, -18967.89, -20677.78, -17826.97, -19548.34, -12423.81, 0.000, 0.000, 0.000, 23:13:45.740, 1574396025740
207, 15108.46, -2074.17, -18576.67, -16912.83, -20619.30, -17514.71, -19549.15, -12053.60, 0.000, 0.000, 0.000, 23:13:45.740, 1574396025740
208, 15120.26, -2082.09, -18593.07, -16496.46, -20620.82, -17512.90, -19552.90, -12007.76, 0.000, 0.000, 0.000, 23:13:45.748, 1574396025748
209, 15136.78, -2033.99, -18758.86, -18490.44, -20681.44, -17829.05, -19552.37, -12377.34, 0.000, 0.000, 0.000, 23:13:45.749, 1574396025749
210, 15140.04, -2006.23, -18754.43, -19167.49, -20679.92, -17859.71, -19535.25, -12454.95, 0.126, 0.904, 0.410, 23:13:45.755, 1574396025755
211, 15128.73, -2049.01, -18585.38, -17265.38, -20617.49, -17548.04, -19525.39, -12089.14, 0.000, 0.000, 0.000, 23:13:45.756, 1574396025756
212, 15109.60, -2095.86, -18581.32, -16336.80, -20623.04, -17483.67, -19553.17, -11973.76, 0.000, 0.000, 0.000, 23:13:45.762, 1574396025762
213, 15121.92, -2053.92, -18740.13, -18110.81, -20680.79, -17779.45, -19555.56, -12314.51, 0.000, 0.000, 0.000, 23:13:45.762, 1574396025762
214, 15136.56, -2005.98, -18765.94, -19281.80, -20683.21, -17883.18, -19527.85, -12478.22, 0.000, 0.000, 0.000, 23:13:45.771, 1574396025771
215, 15124.26, -2040.98, -18614.60, -17663.87, -20629.41, -17607.34, -19522.53, -12163.24, 0.000, 0.000, 0.000, 23:13:45.771, 1574396025771
216, 15115.43, -2086.24, -18560.04, -16269.41, -20615.66, -17463.24, -19545.42, -11952.01, 0.000, 0.000, 0.000, 23:13:45.778, 1574396025778
217, 15125.07, -2058.69, -18710.33, -17710.18, -20673.28, -17722.76, -19558.20, -12241.65, 0.000, 0.000, 0.000, 23:13:45.784, 1574396025784
218, 15129.00, -2015.97, -18795.63, -19309.31, -20705.22, -17911.23, -19551.34, -12506.11, 0.000, 0.000, 0.000, 23:13:45.784, 1574396025784
219, 15133.16, -2026.61, -18648.53, -18082.98, -20645.75, -17667.62, -19531.27, -12245.29, 0.000, 0.000, 0.000, 23:13:45.792, 1574396025792
220, 15110.36, -2081.42, -18554.56, -16319.99, -20613.54, -17450.77, -19546.91, -11957.53, 0.128, 0.900, 0.418, 23:13:45.792, 1574396025792
221, 15112.19, -2076.59, -18686.88, -17321.82, -20669.13, -17667.31, -19571.19, -12183.80, 0.000, 0.000, 0.000, 23:13:45.800, 1574396025800
222, 15139.39, -2017.00, -18789.37, -19218.32, -20701.96, -17911.75, -19550.82, -12497.80, 0.000, 0.000, 0.000, 23:13:45.801, 1574396025801
223, 15131.39, -2015.34, -18668.27, -18460.64, -20650.35, -17723.30, -19525.30, -12308.37, 0.000, 0.000, 0.000, 23:13:45.808, 1574396025808
224, 15109.69, -2074.85, -18542.69, -16468.63, -20605.47, -17454.28, -19538.75, -11968.11, 0.000, 0.000, 0.000, 23:13:45.808, 1574396025808
225, 15106.38, -2083.81, -18645.82, -16958.13, -20647.29, -17601.93, -19566.96, -12107.56, 0.000, 0.000, 0.000, 23:13:45.815, 1574396025815
226, 15119.81, -2027.68, -18786.62, -19008.41, -20693.04, -17890.63, -19559.59, -12464.61, 0.000, 0.000, 0.000, 23:13:45.815, 1574396025815
227, 15116.33, -2020.13, -18716.32, -18799.22, -20660.99, -17789.28, -19543.85, -12385.12, 0.000, 0.000, 0.000, 23:13:45.823, 1574396025823
228, 15092.08, -2087.21, -18573.83, -16731.93, -20613.49, -17500.61, -19561.15, -12030.04, 0.000, 0.000, 0.000, 23:13:45.824, 1574396025824
229, 15101.64, -2091.45, -18617.53, -16659.60, -20621.34, -17552.69, -19569.49, -12050.07, 0.000, 0.000, 0.000, 23:13:45.831, 1574396025831
230, 15122.81, -2034.81, -18764.83, -18714.80, -20667.47, -17852.85, -19559.59, -12409.26, 0.124, 0.906, 0.416, 23:13:45.831, 1574396025831
231, 15126.43, -2013.47, -18730.81, -19056.94, -20651.18, -17829.81, -19541.84, -12419.61, 0.000, 0.000, 0.000, 23:13:45.837, 1574396025837
232, 15110.25, -2060.72, -18571.59, -17045.37, -20591.34, -17516.50, -19541.95, -12047.41, 0.000, 0.000, 0.000, 23:13:45.844, 1574396025844
233, 15097.55, -2101.31, -18592.20, -16439.91, -20607.62, -17501.82, -19573.31, -11989.65, 0.000, 0.000, 0.000, 23:13:45.845, 1574396025845
234, 15117.60, -2050.46, -18742.76, -18368.51, -20660.86, -17802.13, -19572.06, -12340.20, 0.000, 0.000, 0.000, 23:13:45.853, 1574396025853
235, 15125.63, -2003.68, -18747.97, -19242.06, -20654.51, -17857.86, -19547.09, -12444.89, 0.000, 0.000, 0.000, 23:13:45.854, 1574396025854
236, 15113.89, -2045.72, -18588.40, -17441.51, -20596.28, -17561.52, -19544.70, -12103.00, 0.000, 0.000, 0.000, 23:13:45.860, 1574396025860
237, 15099.76, -2093.67, -18560.13, -16316.97, -20590.45, -17452.67, -19570.34, -11944.19, 0.000, 0.000, 0.000, 23:13:45.860, 1574396025860
238, 15108.75, -2060.88, -18718.83, -17974.76, -20647.74, -17739.04, -19580.71, -12264.22, 0.000, 0.000, 0.000, 23:13:45.868, 1574396025868
239, 15127.35, -2009.67, -18764.04, -19319.66, -20655.94, -17869.93, -19553.80, -12453.23, 0.000, 0.000, 0.000, 23:13:45.868, 1574396025868
240, 15115.88, -2041.05, -18613.21, -17846.93, -20602.59, -17602.82, -19546.53, -12158.10, 0.120, 0.908, 0.418, 23:13:45.875, 1574396025875
241, 15091.47, -2098.87, -18545.46, -16298.53, -20588.84, -17434.52, -19576.69, -11928.34, 0.000, 0.000, 0.000, 23:13:45.875, 1574396025875
242, 15102.45, -2072.81, -18678.90, -17567.93, -20640.94, -17673.01, -19586.19, -12183.91, 0.000, 0.000, 0.000, 23:13:45.883, 1574396025883
243, 15123.01, -2014.25, -18770.19, -19292.59, -20671.83, -17881.53, -19569.31, -12454.70, 0.000, 0.000, 0.000, 23:13:45.883, 1574396025883
244, 15111.08, -2039.71, -18651.01, -18254.09, -20633.14, -17678.55, -19566.65, -12241.63, 0.000, 0.000, 0.000, 23:13:45.890, 1574396025890
245, 15105.33, -2090.72, -18537.08, -16385.53, -20598.56, -17433.00, -19578.63, -11927.32, 0.000, 0.000, 0.000, 23:13:45.890, 1574396025890
246, 15115.08, -2078.51, -18651.37, -17186.23, -20643.22, -17610.65, -19591.95, -12108.36, 0.000, 0.000, 0.000, 23:13:45.897, 1574396025897
247, 15126.27, -2020.89, -18779.02, -19147.33, -20686.09, -17872.39, -19580.37, -12438.32, 0.000, 0.000, 0.000, 23:13:45.898, 1574396025898
248, 15124.71, -2017.02, -18684.54, -18598.66, -20647.29, -17725.58, -19563.83, -12298.58, 0.000, 0.000, 0.000, 23:13:45.905, 1574396025905
249, 15103.59, -2076.39, -18557.04, -16566.67, -20604.69, -17449.69, -19580.02, -11957.47, 0.000, 0.000, 0.000, 23:13:45.913, 1574396025913
250, 15109.20, -2079.79, -18638.49, -16836.85, -20637.07, -17549.49, -19595.93, -12044.06, 0.128, 0.904, 0.420, 23:13:45.913, 1574396025913
251, 15120.95, -2029.34, -18779.64, -18898.49, -20688.60, -17849.05, -19588.76, -12406.67, 0.000, 0.000, 0.000, 23:13:45.919, 1574396025919
252, 15107.32, -2029.40, -18730.94, -18910.92, -20675.23, -17789.98, -19581.33, -12373.70, 0.000, 0.000, 0.000, 23:13:45.919, 1574396025919
253, 15085.17, -2094.74, -18591.44, -16865.75, -20630.06, -17492.94, -19595.13, -12016.34, 0.000, 0.000, 0.000, 23:13:45.927, 1574396025927
254, 15100.35, -2097.13, -18612.43, -16569.15, -20629.14, -17506.53, -19594.52, -11996.27, 0.000, 0.000, 0.000, 23:13:45.927, 1574396025927
255, 15115.97, -2042.59, -18771.60, -18594.39, -20688.35, -17818.52, -19594.77, -12366.46, 0.000, 0.000, 0.000, 23:13:45.935, 1574396025935
0, 15121.92, -2010.99, -18748.78, -19150.21, -20674.83, -17828.80, -19574.52, -12422.23, 0.000, 0.000, 0.000, 23:13:45.935, 1574396025935
1, 15109.20, -2059.04, -18585.16, -17206.75, -20618.01, -17518.71, -19573.00, -12058.45, 0.000, 0.000, 0.000, 23:13:45.942, 1574396025942
2, 15098.04, -2101.24, -18591.49, -16398.89, -20627.46, -17470.84, -19597.05, -11955.63, 0.000, 0.000, 0.000, 23:13:45.942, 1574396025942
3, 15118.29, -2054.53, -18748.35, -18230.33, -20679.92, -17762.93, -19595.30, -12295.38, 0.000, 0.000, 0.000, 23:13:45.950, 1574396025950
4, 15129.09, -2014.85, -18772.54, -19290.74, -20684.06, -17854.89, -19574.52, -12444.69, 0.126, 0.898, 0.424, 23:13:45.950, 1574396025950
5, 15108.93, -2055.94, -18622.94, -17611.25, -20634.06, -17579.20, -19575.61, -12129.29, 0.000, 0.000, 0.000, 23:13:45.958, 1574396025958
6, 15094.16, -2103.54, -18584.31, -16319.88, -20627.51, -17452.85, -19600.98, -11941.29, 0.000, 0.000, 0.000, 23:13:45.959, 1574396025959
7, 15102.78, -2074.44, -18738.18, -17842.53, -20686.05, -17720.06, -19611.69, -12245.09, 0.000, 0.000, 0.000, 23:13:45.965, 1574396025965
8, 15120.46, -2019.12, -18803.34, -19344.81, -20704.26, -17888.64, -19594.19, -12485.24, 0.000, 0.000, 0.000, 23:13:45.973, 1574396025973
9, 15107.63, -2046.37, -18663.95, -18018.48, -20654.73, -17650.14, -19591.33, -12227.16, 0.000, 0.000, 0.000, 23:13:45.974, 1574396025974
10, 15083.85, -2103.32, -18587.42, -16338.90, -20634.91, -17450.65, -19612.00, -11954.36, 0.000, 0.000, 0.000, 23:13:45.981, 1574396025981
11, 15105.22, -2076.50, -18714.13, -17444.35, -20681.26, -17662.73, -19617.61, -12176.65, 0.000, 0.000, 0.000, 23:13:45.982, 1574396025982
12, 15121.85, -2018.99, -18820.32, -19271.34, -20715.33, -17896.71, -19604.71, -12479.89, 0.000, 0.000, 0.000, 23:13:45.988, 1574396025988
13, 15115.25, -2033.81, -18707.92, -18411.64, -20672.57, -17714.92, -19596.02, -12297.68, 0.000, 0.000, 0.000, 23:13:45.988, 1574396025988
14, 15095.45, -2097.71, -18594.48, -16476.52, -20636.11, -17460.53, -19611.98, -11971.53, 0.000, 0.000, 0.000, 23:13:45.996, 1574396025996
15, 15098.71, -2091.63, -18690.64, -17079.44, -20670.31, -17611.03, -19620.34, -12112.81, 0.122, 0.906, 0.426, 23:13:45.997, 1574396025997
16, 15121.51, -2029.18, -18822.18, -19102.63, -20713.41, -17891.81, -19607.20, -12463.51, 0.000, 0.000, 0.000, 23:13:46.003, 1574396026003
17, 15119.68, -2023.30, -18736.51, -18764.67, -20679.83, -17780.66, -19590.68, -12365.50, 0.000, 0.000, 0.000, 23:13:46.003, 1574396026003
18, 15092.63, -2088.26, -18603.60, -16713.70, -20641.05, -17498.38, -19612.58, -12021.37, 0.000, 0.000, 0.000, 23:13:46.010, 1574396026010
19, 15085.37, -2110.23, -18678.44, -16785.20, -20676.68, -17580.07, -19635.31, -12074.17, 0.000, 0.000, 0.000, 23:13:46.011, 1574396026011
20, 15111.92, -2039.78, -18811.54, -18840.35, -20713.79, -17869.79, -19611.55, -12421.22, 0.000, 0.000, 0.000, 23:13:46.017, 1574396026017
21, 15119.35, -2010.18, -18760.29, -19048.40, -20688.17, -17818.21, -19584.73, -12407.65, 0.000, 0.000, 0.000, 23:13:46.017, 1574396026017
22, 15104.77, -2069.93, -18612.61, -17025.64, -20640.58, -17516.08, -19595.24, -12048.95, 0.000, 0.000, 0.000, 23:13:46.024, 1574396026024
23, 15088.83, -2106.85, -18638.98, -16535.17, -20660.70, -17524.91, -19624.18, -12014.98, 0.000, 0.000, 0.000, 23:13:46.032, 1574396026032
24, 15099.47, -2061.19, -18795.94, -18497.34, -20719.73, -17833.94, -19626.08, -12378.37, 0.000, 0.000, 0.000, 23:13:46.032, 1574396026032
25, 15114.09, -2017.98, -18784.63, -19248.00, -20709.87, -17867.69, -19596.27, -12461.16, 0.122, 0.910, 0.426, 23:13:46.040, 1574396026040
26, 15100.19, -2059.20, -18625.91, -17382.88, -20649.35, -17566.55, -19588.96, -12108.59, 0.000, 0.000, 0.000, 23:13:46.040, 1574396026040
27, 15090.09, -2097.64, -18602.11, -16377.14, -20641.25, -17483.18, -19606.14, -11970.19, 0.000, 0.000, 0.000, 23:13:46.047, 1574396026047
28, 15100.32, -2068.61, -18759.57, -18092.17, -20699.90, -17770.55, -19613.23, -12301.86, 0.000, 0.000, 0.000, 23:13:46.048, 1574396026048
29, 15121.76, -2018.23, -18798.67, -19332.45, -20708.42, -17889.53, -19591.55, -12483.05, 0.000, 0.000, 0.000, 23:13:46.056, 1574396026056
30, 15118.45, -2043.87, -18648.19, -17775.40, -20651.31, -17618.99, -19586.74, -12186.73, 0.000, 0.000, 0.000, 23:13:46.056, 1574396026056
31, 15098.22, -2096.88, -18593.52, -16314.96, -20638.95, -17461.45, -19607.26, -11960.60, 0.000, 0.000, 0.000, 23:13:46.063, 1574396026063
32, 15094.69, -2084.50, -18747.46, -17691.16, -20704.11, -17725.36, -19628.23, -12247.48, 0.000, 0.000, 0.000, 23:13:46.063, 1574396026063
33, 15110.02, -2026.57, -18823.79, -19334.21, -20726.93, -17917.09, -19604.80, -12505.89, 0.000, 0.000, 0.000, 23:13:46.070, 1574396026070
34, 15104.93, -2040.36, -18688.09, -18174.72, -20673.93, -17686.51, -19587.77, -12259.48, 0.000, 0.000, 0.000, 23:13:46.070, 1574396026070
35, 15089.48, -2101.71, -18599.78, -16381.19, -20649.66, -17468.92, -19613.59, -11974.16, 0.120, 0.908, 0.424, 23:13:46.077, 1574396026077
36, 15091.63, -2090.49, -18721.51, -17306.20, -20698.36, -17666.62, -19626.55, -12177.39, 0.000, 0.000, 0.000, 23:13:46.077, 1574396026077
37, 15110.65, -2025.65, -18830.99, -19225.29, -20733.28, -17913.47, -19604.40, -12488.50, 0.000, 0.000, 0.000, 23:13:46.084, 1574396026084
38, 15119.79, -2020.58, -18718.06, -18560.11, -20686.90, -17745.18, -19584.31, -12324.19, 0.000, 0.000, 0.000, 23:13:46.092, 1574396026092
39, 15099.12, -2083.36, -18593.57, -16559.85, -20648.47, -17475.91, -19603.75, -11988.22, 0.000, 0.000, 0.000, 23:13:46.092, 1574396026092
40, 15081.33, -2106.61, -18698.96, -16977.51, -20700.15, -17625.65, -19637.48, -12120.99, 0.000, 0.000, 0.000, 23:13:46.100, 1574396026100
41, 15100.75, -2040.71, -18835.28, -19023.10, -20738.19, -17905.42, -19618.71, -12473.21, 0.000, 0.000, 0.000, 23:13:46.100, 1574396026100
42, 15114.56, -2018.03, -18757.03, -18885.73, -20699.41, -17804.97, -19590.07, -12397.46, 0.000, 0.000, 0.000, 23:13:46.107, 1574396026107
43, 15099.23, -2072.70, -18602.82, -16819.49, -20645.23, -17502.82, -19596.76, -12032.37, 0.000, 0.000, 0.000, 23:13:46.108, 1574396026108
44, 15094.67, -2094.94, -18651.79, -16664.61, -20673.51, -17551.39, -19621.52, -12048.48, 0.000, 0.000, 0.000, 23:13:46.115, 1574396026115
45, 15103.48, -2048.34, -18817.08, -18712.14, -20739.71, -17864.43, -19627.40, -12420.73, 0.124, 0.908, 0.420, 23:13:46.115, 1574396026115
46, 15110.36, -2015.84, -18788.03, -19137.52, -20723.33, -17852.34, -19603.78, -12449.03, 0.000, 0.000, 0.000, 23:13:46.123, 1574396026123
47, 15099.23, -2064.09, -18626.76, -17150.47, -20662.76, -17542.92, -19601.85, -12085.27, 0.000, 0.000, 0.000, 23:13:46.123, 1574396026123
48, 15084.50, -2105.24, -18642.72, -16460.58, -20676.23, -17516.68, -19632.23, -12013.88, 0.000, 0.000, 0.000, 23:13:46.129, 1574396026129
49, 15102.42, -2053.48, -18804.10, -18342.76, -20735.31, -17813.29, -19634.42, -12364.11, 0.000, 0.000, 0.000, 23:13:46.129, 1574396026129
50, 15112.53, -2014.38, -18823.50, -19293.67, -20738.28, -17887.07, -19612.74, -12487.61, 0.000, 0.000, 0.000, 23:13:46.139, 1574396026139
51, 15092.75, -2060.52, -18671.10, -17541.60, -20689.58, -17605.60, -19616.65, -12162.70, 0.000, 0.000, 0.000, 23:13:46.139, 1574396026139
52, 15084.66, -2099.61, -18631.45, -16345.65, -20678.80, -17490.13, -19637.48, -11993.74, 0.000, 0.000, 0.000, 23:13:46.145, 1574396026145
53, 15105.62, -2059.98, -18779.20, -17943.89, -20729.34, -17761.39, -19637.08, -12296.86, 0.000, 0.000, 0.000, 23:13:46.146, 1574396026146
54, 15117.89, -2009.02, -18835.41, -19355.38, -20743.27, -17908.91, -19613.19, -12501.60, 0.000, 0.000, 0.000, 23:13:46.153, 1574396026153
55, 15113.38, -2034.01, -18694.91, -17950.71, -20687.68, -17656.74, -19604.33, -12225.33, 0.124, 0.906, 0.424, 23:13:46.160, 1574396026160
56, 15093.48, -2090.40, -18618.53, -16346.81, -20669.30, -17479.91, -19632.70, -11988.25, 0.000, 0.000, 0.000, 23:13:46.161, 1574396026161
57, 15093.28, -2073.79, -18752.38, -17553.36, -20722.73, -17710.22, -19643.83, -12230.45, 0.000, 0.000, 0.000, 23:13:46.167, 1574396026167
58, 15103.27, -2023.50, -18851.26, -19326.48, -20754.49, -17928.47, -19622.95, -12508.48, 0.000, 0.000, 0.000, 23:13:46.167, 1574396026167
59, 15088.57, -2049.01, -18736.39, -18370.99, -20718.41, -17739.06, -19621.19, -12312.70, 0.000, 0.000, 0.000, 23:13:46.175, 1574396026175
60, 15083.83, -2098.87, -18616.39, -16464.76, -20674.36, -17488.54, -19629.97, -11992.74, 0.000, 0.000, 0.000, 23:13:46.175, 1574396026175
61, 15094.09, -2088.01, -18716.03, -17171.50, -20709.65, -17646.43, -19636.99, -12153.25, 0.000, 0.000, 0.000, 23:13:46.182, 1574396026182
62, 15109.15, -2029.45, -18844.96, -19167.25, -20759.56, -17921.14, -19630.66, -12497.66, 0.000, 0.000, 0.000, 23:13:46.182, 1574396026182
63, 15120.35, -2017.36, -18754.28, -18714.38, -20728.54, -17785.37, -19616.05, -12372.09, 0.000, 0.000, 0.000, 23:13:46.192, 1574396026192
64, 15105.38, -2074.69, -18614.62, -16661.57, -20676.46, -17493.12, -19621.34, -12013.50, 0.000, 0.000, 0.000, 23:13:46.192, 1574396026192
65, 15078.13, -2098.61, -18676.78, -16832.05, -20696.80, -17581.68, -19629.21, -12082.95, 0.120, 0.904, 0.422, 23:13:46.199, 1574396026199
66, 15079.47, -2051.13, -18828.82, -18900.54, -20752.68, -17883.81, -19622.57, -12450.52, 0.000, 0.000, 0.000, 23:13:46.199, 1574396026199
67, 15083.98, -2028.51, -18777.57, -18992.97, -20731.33, -17826.07, -19606.37, -12422.96, 0.000, 0.000, 0.000, 23:13:46.207, 1574396026207
68, 15054.15, -2089.02, -18632.19, -16945.84, -20681.53, -17522.74, -19617.03, -12059.26, 0.000, 0.000, 0.000, 23:13:46.207, 1574396026207
69, 15031.57, -2129.50, -18678.23, -16581.13, -20706.86, -17546.77, -19644.84, -12044.53, 0.000, 0.000, 0.000, 23:13:46.211, 1574396026211
70, 15046.32, -2076.68, -18833.76, -18579.35, -20759.61, -17856.18, -19639.16, -12412.64, 0.000, 0.000, 0.000, 23:13:46.220, 1574396026220
71, 15048.38, -2041.54, -18815.05, -19208.82, -20743.11, -17871.05, -19607.64, -12469.08, 0.000, 0.000, 0.000, 23:13:46.220, 1574396026220
72, 15025.94, -2091.68, -18655.57, -17304.90, -20684.57, -17562.66, -19603.87, -12112.03, 0.000, 0.000, 0.000, 23:13:46.227, 1574396026227
73, 15011.61, -2135.49, -18655.14, -16406.58, -20690.03, -17506.20, -19632.07, -12004.76, 0.000, 0.000, 0.000, 23:13:46.227, 1574396026227
74, 15024.28, -2094.22, -18820.73, -18199.77, -20752.57, -17811.28, -19642.29, -12350.54, 0.000, 0.000, 0.000, 23:13:46.234, 1574396026234
75, 15038.99, -2052.87, -18846.88, -19349.14, -20757.64, -17919.97, -19622.91, -12520.93, 0.120, 0.906, 0.422, 23:13:46.234, 1574396026234
76, 15033.67, -2079.79, -18685.83, -17712.55, -20701.16, -17639.68, -19617.72, -12206.31, 0.000, 0.000, 0.000, 23:13:46.242, 1574396026242
77, 15022.92, -2126.01, -18639.37, -16349.34, -20693.00, -17496.92, -19640.05, -11993.07, 0.000, 0.000, 0.000, 23:13:46.242, 1574396026242
78, 15017.22, -2114.52, -18808.37, -17819.12, -20765.08, -17767.80, -19660.04, -12290.11, 0.000, 0.000, 0.000, 23:13:46.251, 1574396026251
79, 15037.47, -2054.21, -18876.25, -19384.37, -20783.77, -17943.67, -19634.76, -12534.10, 0.000, 0.000, 0.000, 23:13:46.251, 1574396026251
80, 15043.84, -2058.64, -18724.08, -18121.34, -20719.69, -17691.94, -19612.69, -12270.46, 0.000, 0.000, 0.000, 23:13:46.257, 1574396026257
81, 15027.17, -2120.38, -18633.35, -16385.93, -20694.61, -17483.11, -19632.72, -11991.42, 0.000, 0.000, 0.000, 23:13:46.257, 1574396026257
82, 15027.21, -2111.39, -18763.42, -17414.15, -20748.10, -17697.91, -19649.73, -12210.56, 0.000, 0.000, 0.000, 23:13:46.265, 1574396026265
83, 15046.90, -2056.85, -18878.44, -19289.00, -20786.14, -17934.79, -19631.29, -12512.71, 0.000, 0.000, 0.000, 23:13:46.265, 1574396026265
84, 15048.27, -2055.04, -18754.21, -18510.80, -20732.70, -17747.04, -19605.77, -12324.57, 0.000, 0.000, 0.000, 23:13:46.272, 1574396026272
85, 15016.08, -2115.77, -18632.28, -16523.73, -20694.83, -17482.95, -19621.57, -11991.11, 0.000, 0.000, 0.000, 23:13:46.280, 1574396026280
86, 15019.23, -2115.64, -18727.50, -17033.82, -20731.71, -17628.75, -19637.08, -12128.44, 0.122, 0.902, 0.424, 23:13:46.280, 1574396026280
87, 15040.62, -2055.85, -18864.34, -19077.97, -20777.51, -17914.27, -19625.66, -12481.86, 0.000, 0.000, 0.000, 23:13:46.286, 1574396026286
88, 15048.71, -2040.27, -18779.69, -18831.54, -20742.82, -17802.87, -19606.14, -12395.25, 0.000, 0.000, 0.000, 23:13:46.286, 1574396026286
89, 15030.41, -2098.63, -18640.84, -16763.32, -20696.98, -17507.96, -19619.36, -12036.12, 0.000, 0.000, 0.000, 23:13:46.294, 1574396026294
90, 15024.57, -2116.33, -18707.45, -16735.06, -20730.39, -17585.90, -19649.91, -12085.05, 0.000, 0.000, 0.000, 23:13:46.294, 1574396026294
91, 15043.64, -2061.48, -18865.86, -18795.22, -20787.05, -17891.83, -19649.80, -12459.35, 0.000, 0.000, 0.000, 23:13:46.303, 1574396026303
92, 15045.76, -2038.57, -18834.25, -19103.79, -20772.26, -17869.68, -19636.72, -12477.79, 0.000, 0.000, 0.000, 23:13:46.303, 1574396026303
93, 15032.98, -2092.17, -18682.79, -17099.60, -20721.65, -17571.02, -19647.45, -12122.58, 0.000, 0.000, 0.000, 23:13:46.309, 1574396026309
94, 15032.24, -2118.27, -18701.08, -16516.33, -20731.71, -17553.09, -19666.23, -12062.16, 0.000, 0.000, 0.000, 23:13:46.310, 1574396026310
95, 15049.05, -2064.74, -18858.57, -18442.42, -20786.72, -17854.17, -19660.19, -12410.85, 0.000, 0.000, 0.000, 23:13:46.317, 1574396026317
96, 15058.24, -2023.70, -18858.70, -19294.54, -20781.80, -17908.06, -19635.02, -12515.52, 0.120, 0.904, 0.418, 23:13:46.317, 1574396026317
97, 15037.56, -2072.16, -18705.55, -17482.46, -20724.47, -17615.19, -19631.78, -12176.81, 0.000, 0.000, 0.000, 23:13:46.325, 1574396026325
98, 15025.49, -2119.68, -18688.07, -16390.11, -20724.25, -17520.19, -19654.25, -12020.88, 0.000, 0.000, 0.000, 23:13:46.325, 1574396026325
99, 15039.35, -2081.10, -18836.53, -18064.63, -20785.47, -17805.67, -19661.87, -12341.11, 0.000, 0.000, 0.000, 23:13:46.332, 1574396026332
100, 15054.23, -2031.62, -18878.98, -19389.04, -20797.54, -17944.23, -19641.64, -12544.85, 0.000, 0.000, 0.000, 23:13:46.339, 1574396026339
101, 15043.15, -2056.34, -18728.84, -17883.94, -20741.79, -17672.76, -19629.48, -12247.15, 0.000, 0.000, 0.000, 23:13:46.339, 1574396026339
102, 15035.48, -2104.04, -18653.92, -16350.17, -20720.38, -17495.76, -19644.23, -12000.52, 0.000, 0.000, 0.000, 23:13:46.348, 1574396026348
103, 15037.54, -2090.78, -18803.20, -17653.90, -20780.80, -17748.04, -19664.17, -12274.13, 0.000, 0.000, 0.000, 23:13:46.348, 1574396026348
104, 15045.54, -2039.75, -18895.47, -19364.50, -20811.26, -17962.24, -19649.22, -12554.46, 0.000, 0.000, 0.000, 23:13:46.357, 1574396026357
105, 15052.58, -2041.18, -18749.09, -18278.16, -20745.53, -17729.49, -19620.94, -12313.87, 0.000, 0.000, 0.000, 23:13:46.357, 1574396026357
106, 15041.25, -2095.52, -18646.38, -16427.28, -20712.49, -17493.75, -19639.11, -12008.74, 0.118, 0.906, 0.428, 23:13:46.362, 1574396026362
107, 15044.91, -2087.18, -18760.22, -17254.63, -20758.89, -17678.55, -19652.70, -12193.79, 0.000, 0.000, 0.000, 23:13:46.362, 1574396026362
108, 15061.48, -2026.30, -18883.40, -19214.27, -20800.42, -17940.45, -19638.85, -12524.82, 0.000, 0.000, 0.000, 23:13:46.369, 1574396026369
109, 15063.67, -2020.40, -18788.56, -18647.30, -20760.81, -17788.19, -19618.75, -12379.36, 0.000, 0.000, 0.000, 23:13:46.369, 1574396026369
110, 15046.66, -2083.83, -18653.51, -16612.06, -20714.75, -17507.72, -19629.53, -12030.18, 0.000, 0.000, 0.000, 23:13:46.377, 1574396026377
111, 15042.79, -2096.62, -18738.79, -16918.13, -20755.43, -17633.16, -19656.39, -12139.10, 0.000, 0.000, 0.000, 23:13:46.377, 1574396026377
112, 15063.85, -2032.04, -18882.84, -18982.67, -20810.57, -17927.44, -19647.21, -12499.25, 0.000, 0.000, 0.000, 23:13:46.385, 1574396026385
113, 15068.83, -2016.98, -18819.95, -18963.76, -20784.42, -17854.93, -19628.68, -12452.20, 0.000, 0.000, 0.000, 23:13:46.385, 1574396026385
114, 15050.21, -2076.50, -18678.48, -16911.42, -20733.63, -17554.34, -19641.71, -12086.91, 0.000, 0.000, 0.000, 23:13:46.391, 1574396026391
115, 15040.44, -2101.76, -18730.85, -16663.67, -20760.84, -17598.06, -19668.21, -12091.15, 0.000, 0.000, 0.000, 23:13:46.391, 1574396026391
116, 15056.42, -2049.03, -18888.32, -18692.76, -20815.91, -17906.29, -19660.21, -12457.07, 0.124, 0.906, 0.428, 23:13:46.400, 1574396026400
117, 15067.06, -2013.53, -18859.87, -19219.84, -20797.56, -17907.12, -19632.63, -12499.70, 0.000, 0.000, 0.000, 23:13:46.408, 1574396026408
118, 15050.08, -2062.71, -18697.97, -17271.44, -20737.30, -17600.84, -19633.62, -12141.38, 0.000, 0.000, 0.000, 23:13:46.408, 1574396026408
119, 15040.96, -2100.91, -18702.26, -16479.27, -20742.35, -17554.70, -19654.09, -12043.28, 0.000, 0.000, 0.000, 23:13:46.414, 1574396026414
120, 15051.46, -2058.86, -18864.29, -18321.48, -20802.39, -17853.81, -19654.80, -12385.64, 0.000, 0.000, 0.000, 23:13:46.414, 1574396026414
121, 15065.14, -2016.78, -18878.08, -19362.18, -20802.12, -17935.17, -19630.13, -12527.30, 0.000, 0.000, 0.000, 23:13:46.421, 1574396026421
122, 15047.22, -2052.72, -18719.27, -17660.78, -20743.78, -17646.01, -19625.26, -12197.84, 0.000, 0.000, 0.000, 23:13:46.421, 1574396026421
123, 15027.61, -2105.98, -18681.68, -16378.75, -20738.98, -17524.62, -19652.84, -12014.31, 0.000, 0.000, 0.000, 23:13:46.429, 1574396026429
124, 15046.25, -2071.67, -18832.51, -17905.76, -20795.82, -17787.03, -19658.60, -12309.91, 0.000, 0.000, 0.000, 23:13:46.429, 1574396026429
125, 15065.75, -2011.75, -18893.01, -19388.01, -20812.13, -17945.61, -19633.37, -12534.88, 0.000, 0.000, 0.000, 23:13:46.438, 1574396026438
126, 15055.67, -2033.90, -18750.47, -18053.48, -20759.52, -17701.11, -19624.70, -12269.12, 0.120, 0.906, 0.424, 23:13:46.438, 1574396026438
127, 15036.71, -2091.65, -18672.11, -16391.85, -20742.20, -17512.23, -19655.56, -12014.67, 0.000, 0.000, 0.000, 23:13:46.444, 1574396026444
128, 15034.36, -2090.58, -18819.43, -17520.73, -20805.05, -17754.37, -19683.79, -12265.32, 0.000, 0.000, 0.000, 23:13:46.445, 1574396026445
129, 15044.74, -2037.00, -18930.00, -19354.20, -20843.07, -17992.66, -19671.05, -12574.87, 0.000, 0.000, 0.000, 23:13:46.453, 1574396026453
130, 15057.57, -2027.66, -18796.16, -18457.24, -20784.13, -17785.84, -19646.09, -12369.92, 0.000, 0.000, 0.000, 23:13:46.453, 1574396026453
131, 15039.24, -2090.87, -18684.47, -16517.74, -20750.78, -17533.65, -19666.03, -12048.30, 0.000, 0.000, 0.000, 23:13:46.459, 1574396026459
132, 15043.98, -2089.24, -18787.40, -17146.96, -20792.29, -17692.03, -19679.62, -12195.09, 0.000, 0.000, 0.000, 23:13:46.466, 1574396026466
133, 15063.73, -2028.29, -18922.92, -19170.02, -20836.54, -17967.65, -19665.47, -12540.47, 0.000, 0.000, 0.000, 23:13:46.466, 1574396026466
134, 15065.83, -2012.35, -18840.49, -18822.47, -20806.72, -17851.47, -19651.45, -12443.39, 0.000, 0.000, 0.000, 23:13:46.474, 1574396026474
135, 15055.75, -2064.90, -18696.23, -16759.20, -20758.42, -17560.65, -19661.42, -12080.80, 0.000, 0.000, 0.000, 23:13:46.474, 1574396026474
136, 15050.17, -2094.36, -18764.98, -16838.06, -20784.04, -17645.52, -19678.99, -12138.63, 0.118, 0.908, 0.418, 23:13:46.482, 1574396026482
137, 15058.53, -2045.90, -18916.17, -18902.91, -20836.45, -17939.31, -19666.83, -12499.32, 0.000, 0.000, 0.000, 23:13:46.482, 1574396026482
138, 15068.14, -2022.74, -18861.14, -19095.23, -20812.98, -17890.13, -19642.13, -12480.70, 0.000, 0.000, 0.000, 23:13:46.490, 1574396026490
139, 15055.87, -2078.31, -18698.55, -17060.50, -20755.58, -17583.09, -19643.05, -12112.48, 0.000, 0.000, 0.000, 23:13:46.490, 1574396026490
140, 15036.26, -2119.75, -18737.67, -16597.89, -20786.52, -17602.13, -19681.02, -12089.28, 0.000, 0.000, 0.000, 23:13:46.496, 1574396026496
141, 15061.32, -2065.35, -18893.06, -18567.04, -20843.16, -17912.33, -19678.54, -12449.85, 0.000, 0.000, 0.000, 23:13:46.497, 1574396026497
142, 15094.09, -2006.85, -18870.28, -19290.14, -20819.84, -17932.09, -19640.81, -12523.44, 0.000, 0.000, 0.000, 23:13:46.505, 1574396026505
143, 15081.41, -2055.33, -18715.83, -17425.67, -20765.13, -17634.88, -19646.09, -12179.71, 0.000, 0.000, 0.000, 23:13:46.505, 1574396026505
144, 15070.06, -2100.86, -18700.18, -16431.77, -20767.09, -17557.00, -19670.29, -12050.63, 0.000, 0.000, 0.000, 23:13:46.512, 1574396026512
145, 15090.42, -2057.72, -18850.59, -18163.12, -20819.58, -17843.04, -19667.39, -12373.99, 0.000, 0.000, 0.000, 23:13:46.513, 1574396026513
146, 15113.53, -2001.73, -18885.68, -19394.52, -20825.21, -17960.83, -19641.33, -12550.75, 0.118, 0.908, 0.420, 23:13:46.520, 1574396026520
147, 15098.11, -2036.11, -18739.57, -17830.14, -20773.78, -17693.30, -19640.19, -12252.62, 0.000, 0.000, 0.000, 23:13:46.526, 1574396026526
148, 15083.81, -2088.93, -18685.81, -16378.08, -20760.84, -17528.06, -19658.29, -12016.90, 0.000, 0.000, 0.000, 23:13:46.526, 1574396026526
149, 15094.09, -2061.10, -18835.93, -17753.97, -20816.58, -17780.07, -19667.72, -12291.85, 0.000, 0.000, 0.000, 23:13:46.534, 1574396026534
150, 15111.90, -2001.42, -18913.40, -19389.40, -20837.68, -17971.52, -19645.75, -12553.99, 0.000, 0.000, 0.000, 23:13:46.534, 1574396026534
151, 15109.40, -2016.26, -18768.69, -18216.85, -20785.06, -17740.51, -19630.02, -12305.73, 0.000, 0.000, 0.000, 23:13:46.542, 1574396026542
152, 15101.49, -2066.28, -18669.43, -16426.79, -20755.61, -17523.59, -19648.66, -12014.02, 0.000, 0.000, 0.000, 23:13:46.542, 1574396026542
153, 15105.11, -2050.97, -18792.16, -17358.36, -20805.34, -17723.75, -19665.47, -12222.83, 0.000, 0.000, 0.000, 23:13:46.549, 1574396026549
154, 15114.12, -1995.32, -18914.40, -19281.40, -20847.90, -17978.76, -19657.06, -12553.95, 0.000, 0.000, 0.000, 23:13:46.550, 1574396026550
155, 15096.93, -2022.48, -18823.12, -18626.58, -20824.90, -17838.88, -19664.57, -12419.12, 0.000, 0.000, 0.000, 23:13:46.558, 1574396026558
156, 15071.83, -2093.44, -18703.63, -16632.85, -20790.63, -17577.88, -19686.66, -12081.94, 0.122, 0.906, 0.416, 23:13:46.558, 1574396026558
157, 15082.00, -2086.00, -18781.37, -17035.58, -20812.60, -17693.46, -19686.99, -12179.82, 0.000, 0.000, 0.000, 23:13:46.565, 1574396026565
158, 15103.65, -2021.92, -18918.43, -19087.65, -20858.42, -17976.84, -19671.37, -12532.71, 0.000, 0.000, 0.000, 23:13:46.565, 1574396026565
159, 15103.14, -2013.49, -18852.27, -18954.14, -20831.91, -17885.80, -19652.81, -12464.00, 0.000, 0.000, 0.000, 23:13:46.572, 1574396026572
160, 15088.32, -2065.50, -18697.52, -16878.70, -20777.26, -17583.54, -19657.24, -12092.05, 0.000, 0.000, 0.000, 23:13:46.572, 1574396026572
161, 15088.61, -2080.97, -18745.49, -16737.37, -20799.13, -17636.22, -19678.43, -12114.62, 0.000, 0.000, 0.000, 23:13:46.578, 1574396026578
162, 15107.90, -2025.78, -18902.27, -18781.75, -20853.53, -17945.14, -19674.99, -12487.27, 0.000, 0.000, 0.000, 23:13:46.587, 1574396026587
163, 15116.42, -1997.42, -18872.78, -19196.93, -20837.90, -17932.98, -19653.55, -12515.12, 0.000, 0.000, 0.000, 23:13:46.587, 1574396026587
164, 15100.23, -2048.09, -18715.29, -17218.69, -20786.92, -17629.24, -19662.61, -12158.41, 0.000, 0.000, 0.000, 23:13:46.594, 1574396026594
165, 15094.47, -2076.30, -18722.71, -16532.29, -20795.44, -17599.14, -19684.53, -12083.22, 0.000, 0.000, 0.000, 23:13:46.594, 1574396026594
166, 15111.12, -2030.07, -18890.49, -18423.47, -20852.95, -17899.21, -19680.82, -12430.41, 0.000, 0.000, 0.000, 23:13:46.603, 1574396026603
167, 15118.72, -1992.03, -18903.34, -19362.38, -20854.76, -17972.61, -19660.86, -12556.49, 0.120, 0.904, 0.418, 23:13:46.603, 1574396026603
168, 15108.79, -2029.96, -18741.56, -17592.97, -20798.61, -17677.57, -19657.40, -12219.23, 0.000, 0.000, 0.000, 23:13:46.610, 1574396026610
169, 15104.68, -2066.42, -18701.97, -16402.36, -20784.24, -17556.31, -19669.45, -12040.86, 0.000, 0.000, 0.000, 23:13:46.611, 1574396026611
170, 15101.93, -2039.98, -18862.84, -18009.85, -20847.63, -17840.54, -19682.07, -12357.41, 0.000, 0.000, 0.000, 23:13:46.616, 1574396026616
171, 15105.80, -1995.03, -18922.29, -19421.56, -20866.00, -17992.46, -19662.58, -12571.16, 0.000, 0.000, 0.000, 23:13:46.616, 1574396026616
172, 15095.79, -2029.67, -18781.10, -18010.41, -20817.61, -17740.96, -19659.65, -12295.94, 0.000, 0.000, 0.000, 23:13:46.624, 1574396026624
173, 15089.57, -2076.83, -18696.96, -16413.71, -20791.66, -17554.54, -19676.40, -12041.47, 0.000, 0.000, 0.000, 23:13:46.625, 1574396026625
174, 15099.21, -2056.14, -18837.49, -17628.84, -20846.42, -17793.53, -19691.66, -12295.49, 0.000, 0.000, 0.000, 23:13:46.632, 1574396026632
175, 15115.66, -1996.77, -18927.72, -19394.00, -20877.45, -18011.79, -19674.54, -12588.03, 0.000, 0.000, 0.000, 23:13:46.633, 1574396026633
176, 15116.60, -2002.83, -18795.49, -18408.94, -20826.30, -17802.78, -19653.58, -12369.39, 0.000, 0.000, 0.000, 23:13:46.639, 1574396026639
177, 15099.72, -2065.97, -18685.54, -16510.63, -20790.38, -17559.71, -19670.09, -12054.05, 0.122, 0.906, 0.422, 23:13:46.640, 1574396026640
178, 15093.60, -2069.55, -18806.40, -17246.02, -20840.47, -17744.87, -19697.61, -12243.55, 0.000, 0.000, 0.000, 23:13:46.653, 1574396026653
179, 15110.07, -2007.72, -18935.08, -19232.58, -20881.65, -18010.45, -19678.72, -12580.17, 0.000, 0.000, 0.000, 23:13:46.655, 1574396026655
180, 15114.32, -2000.84, -18830.27, -18757.61, -20839.31, -17866.69, -19651.92, -12439.93, 0.000, 0.000, 0.000, 23:13:46.655, 1574396026655
181, 15081.03, -2073.66, -18706.42, -16716.91, -20806.12, -17593.55, -19676.80, -12094.33, 0.000, 0.000, 0.000, 23:13:46.662, 1574396026662
182, 15087.61, -2077.46, -18783.00, -16914.73, -20838.13, -17696.59, -19697.56, -12178.88, 0.000, 0.000, 0.000, 23:13:46.663, 1574396026663
183, 15123.79, -2003.66, -18919.86, -18978.40, -20878.54, -17986.94, -19680.24, -12537.70, 0.000, 0.000, 0.000, 23:13:46.669, 1574396026669
184, 15128.17, -1984.01, -18860.07, -19052.56, -20852.75, -17923.77, -19658.72, -12498.36, 0.000, 0.000, 0.000, 23:13:46.670, 1574396026670
185, 15113.65, -2038.12, -18706.69, -16998.57, -20798.57, -17615.57, -19664.48, -12131.12, 0.000, 0.000, 0.000, 23:13:46.677, 1574396026677
186, 15101.51, -2065.10, -18747.12, -16650.08, -20820.27, -17636.33, -19687.73, -12116.01, 0.000, 0.000, 0.000, 23:13:46.678, 1574396026678
187, 15119.01, -2013.00, -18900.88, -18654.90, -20875.95, -17940.72, -19679.93, -12474.20, 0.118, 0.910, 0.424, 23:13:46.685, 1574396026685
188, 15132.09, -1977.03, -18881.84, -19273.95, -20858.67, -17953.14, -19650.22, -12532.60, 0.000, 0.000, 0.000, 23:13:46.686, 1574396026686
189, 15110.96, -2029.92, -18726.74, -17357.54, -20802.14, -17649.03, -19654.80, -12179.38, 0.000, 0.000, 0.000, 23:13:46.703, 1574396026703
190, 15095.99, -2070.91, -18722.22, -16473.59, -20809.00, -17588.83, -19682.59, -12068.53, 0.000, 0.000, 0.000, 23:13:46.704, 1574396026704
191, 15109.06, -2025.74, -18882.69, -18273.06, -20868.28, -17885.96, -19689.76, -12414.81, 0.000, 0.000, 0.000, 23:13:46.704, 1574396026704
192, 15124.31, -1981.86, -18912.35, -19403.93, -20872.57, -17982.47, -19664.88, -12563.07, 0.000, 0.000, 0.000, 23:13:46.704, 1574396026704
193, 15105.67, -2024.35, -18760.98, -17761.68, -20821.25, -17705.08, -19665.53, -12245.54, 0.000, 0.000, 0.000, 23:13:46.708, 1574396026708
194, 15090.36, -2072.88, -18707.85, -16406.00, -20805.45, -17565.47, -19687.84, -12040.42, 0.000, 0.000, 0.000, 23:13:46.714, 1574396026714
195, 15100.37, -2042.01, -18856.58, -17875.11, -20857.55, -17825.36, -19697.50, -12328.24, 0.000, 0.000, 0.000, 23:13:46.715, 1574396026715
196, 15117.18, -1991.29, -18928.17, -19436.61, -20881.69, -18005.76, -19685.92, -12575.90, 0.000, 0.000, 0.000, 23:13:46.721, 1574396026721
197, 15112.33, -2013.18, -18789.10, -18178.92, -20829.57, -17772.12, -19683.82, -12328.26, 0.122, 0.912, 0.424, 23:13:46.722, 1574396026722
198, 15099.34, -2064.12, -18690.35, -16443.17, -20793.00, -17554.03, -19695.93, -12035.12, 0.000, 0.000, 0.000, 23:13:46.729, 1574396026729
199, 15109.51, -2046.44, -18812.93, -17470.55, -20835.76, -17759.09, -19705.16, -12242.45, 0.000, 0.000, 0.000, 23:13:46.730, 1574396026730
200, 15125.27, -1985.28, -18920.68, -19335.31, -20867.86, -17989.94, -19688.06, -12548.29, 0.000, 0.000, 0.000, 23:13:46.737, 1574396026737
201, 15117.40, -1996.73, -18801.59, -18550.58, -20819.96, -17807.30, -19673.65, -12368.00, 0.000, 0.000, 0.000, 23:13:46.738, 1574396026738
202, 15091.47, -2066.98, -18685.59, -16586.83, -20783.21, -17543.71, -19695.33, -12037.51, 0.000, 0.000, 0.000, 23:13:46.744, 1574396026744
203, 15097.24, -2066.62, -18781.99, -17112.61, -20817.99, -17685.53, -19707.82, -12165.38, 0.000, 0.000, 0.000, 23:13:46.745, 1574396026745
204, 15115.21, -2008.93, -18919.21, -19151.76, -20862.98, -17969.08, -19699.17, -12516.89, 0.000, 0.000, 0.000, 23:13:46.752, 1574396026752
205, 15112.89, -1999.81, -18835.99, -18893.24, -20829.90, -17860.83, -19683.26, -12427.37, 0.000, 0.000, 0.000, 23:13:46.752, 1574396026752
206, 15099.92, -2051.62, -18682.91, -16820.56, -20773.67, -17558.52, -19687.39, -12057.04, 0.000, 0.000, 0.000, 23:13:46.759, 1574396026759
207, 15091.88, -2074.89, -18753.27, -16809.94, -20807.78, -17635.50, -19715.65, -12107.67, 0.122, 0.906, 0.420, 23:13:46.760, 1574396026760
208, 15110.38, -2018.94, -18909.51, -18873.83, -20863.88, -17940.52, -19710.48, -12475.13, 0.000, 0.000, 0.000, 23:13:46.767, 1574396026767
209, 15102.49, -2002.69, -18881.88, -19169.79, -20854.04, -17917.13, -19698.79, -12489.37, 0.000, 0.000, 0.000, 23:13:46.774, 1574396026774
210, 15092.37, -2049.01, -18718.02, -17145.40, -20793.98, -17599.85, -19698.61, -12119.21, 0.000, 0.000, 0.000, 23:13:46.774, 1574396026774
211, 15101.13, -2069.84, -18723.14, -16565.55, -20793.58, -17575.82, -19707.96, -12055.82, 0.000, 0.000, 0.000, 23:13:46.781, 1574396026781
212, 15113.91, -2028.40, -18884.36, -18501.92, -20853.82, -17887.07, -19712.23, -12415.37, 0.000, 0.000, 0.000, 23:13:46.781, 1574396026781
213, 15126.03, -1986.67, -18888.21, -19332.87, -20850.00, -17938.26, -19690.03, -12515.34, 0.000, 0.000, 0.000, 23:13:46.789, 1574396026789
214, 15108.64, -2031.37, -18729.69, -17517.38, -20794.30, -17648.71, -19691.44, -12179.53, 0.000, 0.000, 0.000, 23:13:46.789, 1574396026789
215, 15099.45, -2069.41, -18700.86, -16442.37, -20786.16, -17545.34, -19705.74, -12018.91, 0.000, 0.000, 0.000, 23:13:46.797, 1574396026797
216, 15116.33, -2035.19, -18860.40, -18123.98, -20843.20, -17832.67, -19710.48, -12342.28, 0.000, 0.000, 0.000, 23:13:46.797, 1574396026797
217, 15120.89, -1990.45, -18913.11, -19426.82, -20856.70, -17966.64, -19689.79, -12534.95, 0.124, 0.902, 0.428, 23:13:46.805, 1574396026805
218, 15109.15, -2016.46, -18762.59, -17920.18, -20802.48, -17701.89, -19681.96, -12239.52, 0.000, 0.000, 0.000, 23:13:46.805, 1574396026805
219, 15098.92, -2064.00, -18688.43, -16401.15, -20781.13, -17527.14, -19699.62, -12002.82, 0.000, 0.000, 0.000, 23:13:46.812, 1574396026812
220, 15103.45, -2046.12, -18833.80, -17715.32, -20837.32, -17773.99, -19715.45, -12273.34, 0.000, 0.000, 0.000, 23:13:46.813, 1574396026813
221, 15120.35, -1989.69, -18924.62, -19408.00, -20863.92, -17974.20, -19694.35, -12540.71, 0.000, 0.000, 0.000, 23:13:46.820, 1574396026820
222, 15117.96, -1999.27, -18787.02, -18313.70, -20807.42, -17749.72, -19675.32, -12306.04, 0.000, 0.000, 0.000, 23:13:46.820, 1574396026820
223, 15098.85, -2063.58, -18688.20, -16479.36, -20780.24, -17523.90, -19699.66, -12012.39, 0.000, 0.000, 0.000, 23:13:46.826, 1574396026826
224, 15102.74, -2053.99, -18804.59, -17330.22, -20829.43, -17716.60, -19717.77, -12207.29, 0.000, 0.000, 0.000, 23:13:46.833, 1574396026833
225, 15114.88, -1997.15, -18925.36, -19281.89, -20871.10, -17978.67, -19705.03, -12539.04, 0.000, 0.000, 0.000, 23:13:46.833, 1574396026833
226, 15116.10, -1995.88, -18820.88, -18688.47, -20828.38, -17822.65, -19684.71, -12387.81, 0.000, 0.000, 0.000, 23:13:46.841, 1574396026841
227, 15100.03, -2058.80, -18687.31, -16662.69, -20786.92, -17545.02, -19698.21, -12037.75, 0.122, 0.910, 0.422, 23:13:46.841, 1574396026841
228, 15106.02, -2060.25, -18768.16, -16982.41, -20818.06, -17657.74, -19713.54, -12138.94, 0.000, 0.000, 0.000, 23:13:46.849, 1574396026849
229, 15118.94, -2004.75, -18922.43, -19054.57, -20872.53, -17958.08, -19712.03, -12509.53, 0.000, 0.000, 0.000, 23:13:46.850, 1574396026850
230, 15119.79, -1993.71, -18861.32, -19007.19, -20847.92, -17886.20, -19696.00, -12459.29, 0.000, 0.000, 0.000, 23:13:46.858, 1574396026858
231, 15091.96, -2056.41, -18717.78, -16945.97, -20807.60, -17590.24, -19713.63, -12100.03, 0.000, 0.000, 0.000, 23:13:46.858, 1574396026858
232, 15074.31, -2088.59, -18774.30, -16733.57, -20842.35, -17641.79, -19746.47, -12119.03, 0.000, 0.000, 0.000, 23:13:46.865, 1574396026865
233, 15106.85, -2018.63, -18916.97, -18745.60, -20881.29, -17933.85, -19726.08, -12469.72, 0.000, 0.000, 0.000, 23:13:46.865, 1574396026865
234, 15114.56, -1986.85, -18889.55, -19241.72, -20864.66, -17932.71, -19699.06, -12506.72, 0.000, 0.000, 0.000, 23:13:46.873, 1574396026873
235, 15102.65, -2033.41, -18724.35, -17289.37, -20806.77, -17630.14, -19702.32, -12151.44, 0.000, 0.000, 0.000, 23:13:46.873, 1574396026873
236, 15086.22, -2078.06, -18734.94, -16523.28, -20817.45, -17587.45, -19727.22, -12060.75, 0.000, 0.000, 0.000, 23:13:46.879, 1574396026879
237, 15102.42, -2032.69, -18894.20, -18386.25, -20870.85, -17887.74, -19725.12, -12405.98, 0.000, 0.000, 0.000, 23:13:46.879, 1574396026879
238, 15119.28, -1987.79, -18913.13, -19407.15, -20871.77, -17973.46, -19702.91, -12546.10, 0.116, 0.910, 0.428, 23:13:46.886, 1574396026886
239, 15107.63, -2025.36, -18753.72, -17684.65, -20815.40, -17686.85, -19700.29, -12219.41, 0.000, 0.000, 0.000, 23:13:46.886, 1574396026886
240, 15094.98, -2071.02, -18716.03, -16430.83, -20809.16, -17564.34, -19727.27, -12039.90, 0.000, 0.000, 0.000, 23:13:46.894, 1574396026894
241, 15106.78, -2037.63, -18866.84, -17982.80, -20862.69, -17831.75, -19731.70, -12339.77, 0.000, 0.000, 0.000, 23:13:46.903, 1574396026903
242, 15120.24, -1986.44, -18928.82, -19445.68, -20879.95, -17987.90, -19708.63, -12561.30, 0.000, 0.000, 0.000, 23:13:46.903, 1574396026903
243, 15114.72, -2006.09, -18780.96, -18087.50, -20827.62, -17733.14, -19697.52, -12282.66, 0.000, 0.000, 0.000, 23:13:46.908, 1574396026908
244, 15090.36, -2068.50, -18699.94, -16438.10, -20800.29, -17542.34, -19712.81, -12016.88, 0.000, 0.000, 0.000, 23:13:46.909, 1574396026909
245, 15094.11, -2055.15, -18838.68, -17578.08, -20853.28, -17770.33, -19726.40, -12255.55, 0.000, 0.000, 0.000, 23:13:46.916, 1574396026916
246, 15113.31, -1994.76, -18941.67, -19383.12, -20888.20, -17998.63, -19711.33, -12557.23, 0.000, 0.000, 0.000, 23:13:46.916, 1574396026916
247, 15116.26, -2004.26, -18819.63, -18477.34, -20839.54, -17803.95, -19693.54, -12359.87, 0.000, 0.000, 0.000, 23:13:46.926, 1574396026926
248, 15093.82, -2068.01, -18710.31, -16556.41, -20808.11, -17561.36, -19716.21, -12047.25, 0.114, 0.908, 0.426, 23:13:46.926, 1574396026926
249, 15092.77, -2063.51, -18814.56, -17207.09, -20852.14, -17724.42, -19734.71, -12207.20, 0.000, 0.000, 0.000, 23:13:46.932, 1574396026932
250, 15103.97, -2009.91, -18948.49, -19221.36, -20901.76, -18000.06, -19724.95, -12552.94, 0.000, 0.000, 0.000, 23:13:46.932, 1574396026932
251, 15106.52, -1999.83, -18861.23, -18839.05, -20866.83, -17873.66, -19704.16, -12439.84, 0.000, 0.000, 0.000, 23:13:46.939, 1574396026939
252, 15099.41, -2049.65, -18712.86, -16773.84, -20811.06, -17577.72, -19709.52, -12078.14, 0.000, 0.000, 0.000, 23:13:46.939, 1574396026939
253, 15098.71, -2065.70, -18785.88, -16885.33, -20840.14, -17668.23, -19731.27, -12149.65, 0.000, 0.000, 0.000, 23:13:46.948, 1574396026948
254, 15109.98, -2016.40, -18944.02, -18952.54, -20901.38, -17978.07, -19730.38, -12526.27, 0.000, 0.000, 0.000, 23:13:46.948, 1574396026948
255, 15099.14, -2007.39, -18908.37, -19136.42, -20897.00, -17944.67, -19723.98, -12518.97, 0.000, 0.000, 0.000, 23:13:46.955, 1574396026955
0, 15087.94, -2057.57, -18745.49, -17090.14, -20838.66, -17629.85, -19723.29, -12142.85, 0.000, 0.000, 0.000, 23:13:46.961, 1574396026961
1, 15104.06, -2064.81, -18755.50, -16630.28, -20835.78, -17614.49, -19723.96, -12091.60, 0.000, 0.000, 0.000, 23:13:46.962, 1574396026962
2, 15114.43, -2018.83, -18921.47, -18612.10, -20895.82, -17931.73, -19728.14, -12464.43, 0.118, 0.906, 0.422, 23:13:46.969, 1574396026969
3, 15115.21, -1989.62, -18919.41, -19331.84, -20893.27, -17975.18, -19710.95, -12551.20, 0.000, 0.000, 0.000, 23:13:46.970, 1574396026970
4, 15106.00, -2031.66, -18756.11, -17450.88, -20832.85, -17671.87, -19706.84, -12195.69, 0.000, 0.000, 0.000, 23:13:46.977, 1574396026977
5, 15098.92, -2072.59, -18739.30, -16481.08, -20830.73, -17597.19, -19728.23, -12067.35, 0.000, 0.000, 0.000, 23:13:46.977, 1574396026977
6, 15108.71, -2034.03, -18902.96, -18230.87, -20891.79, -17891.81, -19734.06, -12401.24, 0.000, 0.000, 0.000, 23:13:46.983, 1574396026983
7, 15119.55, -1984.99, -18940.17, -19435.20, -20900.31, -18004.91, -19711.18, -12571.49, 0.000, 0.000, 0.000, 23:13:46.983, 1574396026983
8, 15110.45, -2011.32, -18779.06, -17842.99, -20837.30, -17721.22, -19697.70, -12254.50, 0.000, 0.000, 0.000, 23:13:46.991, 1574396026991
9, 15091.41, -2070.08, -18733.40, -16418.92, -20829.52, -17573.70, -19726.33, -12043.08, 0.000, 0.000, 0.000, 23:13:46.991, 1574396026991
10, 15101.13, -2045.21, -18880.85, -17830.37, -20885.80, -17835.71, -19739.12, -12329.74, 0.000, 0.000, 0.000, 23:13:46.999, 1574396026999
11, 15115.57, -1987.45, -18953.09, -19444.34, -20906.75, -18022.28, -19718.31, -12584.30, 0.000, 0.000, 0.000, 23:13:47.000, 1574396027000
12, 15108.19, -2004.82, -18811.61, -18249.64, -20855.67, -17791.05, -19706.77, -12338.86, 0.126, 0.912, 0.422, 23:13:47.006, 1574396027006
13, 15092.46, -2065.93, -18719.25, -16478.73, -20828.67, -17574.66, -19730.31, -12057.85, 0.000, 0.000, 0.000, 23:13:47.007, 1574396027007
14, 15090.29, -2061.37, -18850.86, -17436.39, -20880.53, -17779.45, -19747.97, -12267.69, 0.000, 0.000, 0.000, 23:13:47.013, 1574396027013
15, 15109.09, -2000.28, -18960.09, -19334.73, -20912.69, -18021.67, -19725.99, -12577.75, 0.000, 0.000, 0.000, 23:13:47.022, 1574396027022
16, 15107.16, -2002.65, -18852.06, -18630.51, -20867.74, -17854.95, -19705.83, -12409.00, 0.000, 0.000, 0.000, 23:13:47.022, 1574396027022
17, 15088.90, -2064.41, -18726.98, -16635.31, -20828.79, -17585.57, -19723.31, -12071.82, 0.000, 0.000, 0.000, 23:13:47.030, 1574396027030
18, 15096.81, -2059.47, -18806.89, -17079.41, -20861.35, -17716.48, -19736.79, -12189.72, 0.000, 0.000, 0.000, 23:13:47.031, 1574396027031
19, 15109.31, -2008.95, -18947.06, -19133.70, -20911.38, -18007.15, -19728.23, -12548.87, 0.000, 0.000, 0.000, 23:13:47.037, 1574396027037
20, 15109.15, -2003.41, -18878.26, -18969.10, -20884.40, -17914.88, -19709.83, -12476.07, 0.000, 0.000, 0.000, 23:13:47.037, 1574396027037
21, 15092.88, -2058.95, -18727.45, -16895.46, -20831.87, -17610.85, -19716.23, -12107.67, 0.000, 0.000, 0.000, 23:13:47.044, 1574396027044
22, 15087.56, -2079.67, -18783.82, -16788.64, -20858.56, -17668.03, -19738.11, -12137.53, 0.124, 0.914, 0.420, 23:13:47.044, 1574396027044
23, 15105.26, -2023.37, -18940.85, -18844.22, -20911.40, -17976.37, -19733.57, -12509.20, 0.000, 0.000, 0.000, 23:13:47.051, 1574396027051
24, 15106.38, -2000.53, -18908.39, -19224.96, -20892.04, -17960.16, -19711.53, -12533.45, 0.000, 0.000, 0.000, 23:13:47.052, 1574396027052
25, 15089.42, -2058.98, -18754.05, -17233.06, -20839.85, -17658.93, -19719.11, -12172.45, 0.000, 0.000, 0.000, 23:13:47.059, 1574396027059
26, 15083.36, -2086.92, -18762.08, -16581.69, -20851.00, -17632.15, -19742.15, -12096.14, 0.000, 0.000, 0.000, 23:13:47.060, 1574396027060
27, 15102.04, -2034.99, -18922.25, -18485.27, -20908.25, -17933.52, -19743.21, -12450.01, 0.000, 0.000, 0.000, 23:13:47.067, 1574396027067
28, 15107.50, -1998.58, -18934.97, -19398.86, -20910.97, -17999.86, -19722.78, -12568.45, 0.000, 0.000, 0.000, 23:13:47.067, 1574396027067
29, 15098.80, -2035.55, -18771.46, -17608.01, -20850.82, -17699.34, -19712.34, -12222.76, 0.000, 0.000, 0.000, 23:13:47.073, 1574396027073
30, 15086.94, -2078.22, -18741.15, -16449.59, -20842.91, -17588.19, -19730.06, -12053.94, 0.000, 0.000, 0.000, 23:13:47.081, 1574396027081
31, 15094.29, -2048.16, -18899.03, -18084.28, -20901.92, -17870.98, -19741.53, -12374.17, 0.000, 0.000, 0.000, 23:13:47.081, 1574396027081
32, 15102.45, -2003.90, -18956.04, -19465.71, -20920.99, -18026.79, -19725.55, -12588.41, 0.112, 0.906, 0.418, 23:13:47.088, 1574396027088
33, 15094.54, -2031.39, -18804.99, -18024.18, -20866.67, -17761.23, -19714.51, -12299.85, 0.000, 0.000, 0.000, 23:13:47.088, 1574396027088
34, 15081.15, -2082.87, -18732.26, -16443.60, -20846.20, -17577.93, -19734.33, -12051.05, 0.000, 0.000, 0.000, 23:13:47.096, 1574396027096
35, 15082.96, -2066.71, -18876.96, -17685.75, -20903.66, -17821.38, -19749.22, -12307.36, 0.000, 0.000, 0.000, 23:13:47.097, 1574396027097
36, 15096.95, -2009.06, -18966.71, -19426.35, -20929.81, -18032.74, -19727.87, -12586.96, 0.000, 0.000, 0.000, 23:13:47.106, 1574396027106
37, 15083.47, -2031.53, -18850.03, -18422.84, -20889.02, -17831.95, -19722.13, -12379.27, 0.000, 0.000, 0.000, 23:13:47.106, 1574396027106
38, 15070.71, -2091.07, -18742.03, -16547.71, -20856.68, -17594.67, -19742.24, -12070.30, 0.000, 0.000, 0.000, 23:13:47.113, 1574396027113
39, 15096.32, -2070.42, -18837.69, -17294.82, -20883.81, -17754.50, -19741.22, -12230.74, 0.000, 0.000, 0.000, 23:13:47.113, 1574396027113
40, 15116.66, -2006.94, -18955.24, -19269.66, -20920.94, -18015.15, -19722.89, -12561.25, 0.000, 0.000, 0.000, 23:13:47.118, 1574396027118
41, 15110.54, -2005.60, -18862.55, -18771.51, -20883.21, -17874.47, -19705.05, -12431.37, 0.000, 0.000, 0.000, 23:13:47.118, 1574396027118
42, 15093.24, -2060.56, -18724.95, -16726.79, -20838.33, -17589.17, -19717.35, -12079.46, 0.112, 0.912, 0.408, 23:13:47.126, 1574396027126
43, 15096.57, -2066.22, -18802.33, -16962.22, -20872.91, -17696.50, -19739.21, -12170.86, 0.000, 0.000, 0.000, 23:13:47.127, 1574396027127
44, 15111.50, -2013.09, -18955.75, -19034.46, -20926.66, -17993.20, -19732.12, -12532.47, 0.000, 0.000, 0.000, 23:13:47.133, 1574396027133
45, 15107.39, -1998.40, -18906.33, -19077.82, -20910.66, -17932.07, -19721.26, -12500.30, 0.000, 0.000, 0.000, 23:13:47.133, 1574396027133
46, 15094.67, -2049.23, -18745.54, -17016.74, -20855.65, -17628.82, -19724.27, -12131.12, 0.000, 0.000, 0.000, 23:13:47.141, 1574396027141
47, 15095.99, -2069.64, -18775.00, -16698.81, -20867.30, -17647.48, -19735.72, -12109.08, 0.000, 0.000, 0.000, 23:13:47.149, 1574396027149
48, 15111.52, -2018.97, -18936.44, -18709.66, -20925.17, -17959.92, -19733.44, -12478.35, 0.000, 0.000, 0.000, 23:13:47.149, 1574396027149
49, 15113.62, -1990.56, -18926.50, -19302.18, -20921.21, -17982.60, -19722.35, -12551.76, 0.000, 0.000, 0.000, 23:13:47.157, 1574396027157
50, 15100.61, -2035.10, -18758.16, -17373.59, -20862.27, -17675.94, -19720.38, -12195.29, 0.000, 0.000, 0.000, 23:13:47.158, 1574396027158
51, 15086.22, -2080.28, -18757.45, -16520.98, -20868.26, -17620.66, -19743.23, -12086.73, 0.000, 0.000, 0.000, 23:13:47.165, 1574396027165
52, 15098.56, -2038.79, -18924.08, -18340.32, -20933.01, -17923.13, -19753.58, -12435.08, 0.110, 0.910, 0.412, 23:13:47.165, 1574396027165
53, 15114.23, -1986.13, -18953.09, -19441.26, -20942.06, -18022.57, -19735.74, -12594.36, 0.000, 0.000, 0.000, 23:13:47.171, 1574396027171
54, 15109.20, -2016.28, -18795.00, -17774.15, -20885.20, -17738.46, -19730.13, -12273.25, 0.000, 0.000, 0.000, 23:13:47.171, 1574396027171
55, 15091.65, -2076.72, -18747.35, -16443.46, -20872.19, -17601.71, -19751.72, -12075.06, 0.000, 0.000, 0.000, 23:13:47.179, 1574396027179
56, 15104.17, -2045.01, -18888.95, -17933.34, -20921.16, -17858.51, -19748.91, -12355.31, 0.000, 0.000, 0.000, 23:13:47.179, 1574396027179
57, 15126.01, -1988.19, -18968.63, -19473.33, -20947.67, -18038.80, -19735.92, -12602.43, 0.000, 0.000, 0.000, 23:13:47.187, 1574396027187
58, 15113.00, -2013.91, -18831.90, -18189.09, -20897.49, -17799.70, -19727.11, -12347.10, 0.000, 0.000, 0.000, 23:13:47.187, 1574396027187
59, 15089.53, -2069.88, -18735.81, -16471.67, -20868.55, -17588.97, -19739.54, -12064.13, 0.000, 0.000, 0.000, 23:13:47.194, 1574396027194
60, 15095.81, -2054.46, -18860.71, -17532.39, -20915.11, -17797.29, -19744.86, -12277.57, 0.000, 0.000, 0.000, 23:13:47.194, 1574396027194
61, 15114.43, -1993.60, -18967.89, -19391.19, -20948.66, -18035.53, -19726.89, -12583.12, 0.000, 0.000, 0.000, 23:13:47.200, 1574396027200
62, 15114.05, -2000.39, -18851.33, -18568.17, -20901.56, -17849.61, -19710.15, -12395.63, 0.000, 0.000, 0.000, 23:13:47.209, 1574396027209
63, 15100.48, -2059.13, -18727.19, -16604.98, -20855.54, -17583.96, -19720.29, -12059.77, 0.114, 0.914, 0.414, 23:13:47.209, 1574396027209
64, 15101.71, -2059.65, -18826.49, -17167.46, -20890.21, -17736.27, -19735.27, -12206.00, 0.000, 0.000, 0.000, 23:13:47.216, 1574396027216
65, 15110.36, -2008.01, -18968.07, -19205.31, -20942.38, -18026.64, -19731.74, -12566.20, 0.000, 0.000, 0.000, 23:13:47.216, 1574396027216
66, 15107.07, -2002.43, -18891.72, -18916.19, -20911.67, -17918.12, -19717.03, -12469.77, 0.000, 0.000, 0.000, 23:13:47.223, 1574396027223
67, 15091.47, -2063.54, -18751.86, -16850.35, -20864.03, -17621.94, -19727.67, -12108.92, 0.000, 0.000, 0.000, 23:13:47.223, 1574396027223
68, 15086.69, -2083.20, -18823.21, -16873.82, -20898.34, -17701.26, -19754.34, -12166.19, 0.000, 0.000, 0.000, 23:13:47.231, 1574396027231
69, 15103.88, -2023.12, -18971.56, -18940.35, -20948.61, -18004.89, -19743.36, -12535.01, 0.000, 0.000, 0.000, 23:13:47.231, 1574396027231
70, 15109.22, -1996.17, -18926.43, -19196.77, -20928.29, -17970.00, -19719.78, -12533.72, 0.000, 0.000, 0.000, 23:13:47.239, 1574396027239
71, 15096.73, -2047.17, -18765.61, -17171.64, -20875.50, -17659.69, -19723.00, -12159.71, 0.000, 0.000, 0.000, 23:13:47.239, 1574396027239
72, 15090.09, -2080.08, -18786.02, -16637.50, -20891.44, -17658.71, -19749.20, -12115.76, 0.000, 0.000, 0.000, 23:13:47.246, 1574396027246
73, 15102.45, -2033.61, -18948.04, -18591.31, -20954.00, -17972.28, -19755.16, -12485.13, 0.116, 0.910, 0.416, 23:13:47.247, 1574396027247
74, 15109.06, -1998.67, -18951.02, -19392.06, -20950.47, -18020.29, -19734.13, -12581.55, 0.000, 0.000, 0.000, 23:13:47.255, 1574396027255
75, 15090.47, -2048.07, -18800.79, -17563.46, -20901.47, -17727.57, -19742.63, -12245.18, 0.000, 0.000, 0.000, 23:13:47.255, 1574396027255
76, 15080.03, -2090.69, -18785.97, -16520.49, -20903.48, -17647.69, -19771.55, -12110.15, 0.000, 0.000, 0.000, 23:13:47.261, 1574396027261
77, 15107.83, -2038.39, -18928.75, -18206.46, -20948.54, -17922.41, -19766.70, -12424.87, 0.000, 0.000, 0.000, 23:13:47.269, 1574396027269
78, 15125.47, -1990.36, -18969.25, -19487.84, -20957.53, -18045.57, -19742.04, -12612.42, 0.000, 0.000, 0.000, 23:13:47.269, 1574396027269
79, 15108.84, -2028.62, -18822.45, -17961.08, -20903.33, -17779.07, -19736.79, -12315.63, 0.000, 0.000, 0.000, 23:13:47.275, 1574396027275
80, 15092.99, -2083.32, -18766.03, -16466.98, -20887.95, -17616.62, -19758.20, -12086.04, 0.000, 0.000, 0.000, 23:13:47.275, 1574396027275
81, 15100.64, -2056.90, -18909.40, -17803.81, -20942.49, -17868.14, -19768.62, -12358.95, 0.000, 0.000, 0.000, 23:13:47.283, 1574396027283
82, 15114.81, -2001.53, -18991.58, -19471.54, -20966.67, -18063.76, -19747.01, -12619.17, 0.000, 0.000, 0.000, 23:13:47.283, 1574396027283
83, 15111.75, -2015.64, -18861.16, -18363.14, -20918.17, -17841.07, -19733.08, -12384.77, 0.114, 0.908, 0.414, 23:13:47.294, 1574396027294
84, 15096.30, -2073.21, -18756.15, -16533.34, -20885.60, -17614.67, -19751.05, -12086.01, 0.000, 0.000, 0.000, 23:13:47.294, 1574396027294
85, 15096.28, -2063.67, -18879.09, -17405.59, -20933.35, -17807.05, -19767.55, -12287.29, 0.000, 0.000, 0.000, 23:13:47.299, 1574396027299
86, 15116.73, -2001.73, -18996.34, -19350.89, -20972.17, -18062.89, -19754.16, -12620.11, 0.000, 0.000, 0.000, 23:13:47.300, 1574396027300
87, 15113.18, -2007.54, -18893.08, -18732.53, -20935.69, -17909.74, -19742.63, -12473.35, 0.000, 0.000, 0.000, 23:13:47.307, 1574396027307
88, 15099.74, -2068.01, -18757.58, -16711.77, -20891.64, -17631.08, -19754.25, -12123.81, 0.000, 0.000, 0.000, 23:13:47.307, 1574396027307
89, 15106.07, -2068.32, -18839.93, -17060.88, -20920.83, -17745.92, -19760.86, -12219.56, 0.000, 0.000, 0.000, 23:13:47.314, 1574396027314
90, 15123.82, -2011.19, -18984.61, -19125.11, -20969.29, -18039.00, -19746.63, -12573.66, 0.000, 0.000, 0.000, 23:13:47.314, 1574396027314
91, 15124.89, -1997.62, -18918.16, -19049.43, -20940.01, -17958.35, -19727.85, -12516.82, 0.000, 0.000, 0.000, 23:13:47.322, 1574396027322
92, 15109.82, -2053.70, -18765.00, -16976.51, -20886.12, -17655.11, -19733.01, -12146.81, 0.000, 0.000, 0.000, 23:13:47.328, 1574396027328
93, 15102.94, -2080.01, -18817.69, -16781.89, -20917.01, -17704.75, -19761.89, -12163.30, 0.114, 0.910, 0.420, 23:13:47.328, 1574396027328
94, 15116.15, -2026.16, -18976.72, -18826.61, -20974.12, -18011.73, -19757.35, -12531.77, 0.000, 0.000, 0.000, 23:13:47.335, 1574396027335
95, 15126.34, -1997.06, -18950.77, -19295.23, -20959.68, -18007.06, -19734.78, -12568.30, 0.000, 0.000, 0.000, 23:13:47.335, 1574396027335
96, 15121.13, -2040.74, -18786.64, -17319.58, -20899.82, -17692.95, -19731.78, -12198.89, 0.000, 0.000, 0.000, 23:13:47.344, 1574396027344
97, 15109.02, -2082.60, -18795.69, -16580.21, -20909.72, -17655.20, -19752.73, -12109.48, 0.000, 0.000, 0.000, 23:13:47.344, 1574396027344
98, 15117.92, -2037.50, -18957.92, -18451.50, -20968.26, -17958.02, -19754.40, -12459.44, 0.000, 0.000, 0.000, 23:13:47.351, 1574396027351
99, 15136.35, -1984.10, -18973.10, -19447.16, -20964.64, -18036.94, -19731.56, -12595.68, 0.000, 0.000, 0.000, 23:13:47.352, 1574396027352
100, 15124.96, -2024.93, -18819.74, -17708.66, -20909.74, -17749.38, -19728.36, -12268.63, 0.000, 0.000, 0.000, 23:13:47.359, 1574396027359
101, 15110.14, -2076.45, -18779.42, -16465.86, -20900.38, -17625.40, -19747.32, -12078.79, 0.000, 0.000, 0.000, 23:13:47.359, 1574396027359
102, 15128.98, -2032.04, -18926.54, -18032.34, -20951.59, -17892.17, -19746.78, -12380.27, 0.000, 0.000, 0.000, 23:13:47.367, 1574396027367
103, 15148.96, -1972.21, -18979.92, -19474.18, -20966.47, -18046.19, -19722.62, -12602.61, 0.114, 0.912, 0.422, 23:13:47.367, 1574396027367
104, 15149.30, -1991.90, -18832.26, -18089.42, -20916.70, -17789.44, -19716.90, -12325.00, 0.000, 0.000, 0.000, 23:13:47.374, 1574396027374
105, 15133.81, -2048.31, -18755.26, -16455.55, -20900.47, -17601.71, -19743.03, -12069.58, 0.000, 0.000, 0.000, 23:13:47.374, 1574396027374
106, 15137.52, -2029.31, -18889.93, -17624.06, -20952.46, -17831.91, -19755.74, -12314.78, 0.000, 0.000, 0.000, 23:13:47.380, 1574396027380
107, 15146.44, -1976.30, -18995.09, -19428.52, -20986.34, -18062.42, -19743.00, -12614.63, 0.000, 0.000, 0.000, 23:13:47.381, 1574396027381
108, 15124.13, -2007.32, -18897.42, -18521.79, -20957.98, -17886.04, -19748.91, -12432.91, 0.000, 0.000, 0.000, 23:13:47.388, 1574396027388
109, 15102.36, -2073.21, -18787.04, -16614.14, -20924.88, -17643.08, -19767.12, -12116.79, 0.000, 0.000, 0.000, 23:13:47.396, 1574396027396
110, 15115.41, -2057.55, -18874.30, -17278.43, -20946.49, -17791.29, -19762.85, -12256.82, 0.000, 0.000, 0.000, 23:13:47.397, 1574396027397
111, 15137.36, -1994.42, -19002.78, -19287.07, -20985.18, -18064.50, -19745.46, -12599.83, 0.000, 0.000, 0.000, 23:13:47.405, 1574396027405
112, 15139.53, -1987.27, -18909.80, -18871.42, -20946.36, -17933.05, -19727.11, -12482.42, 0.000, 0.000, 0.000, 23:13:47.405, 1574396027405
113, 15116.69, -2056.11, -18774.77, -16815.75, -20903.33, -17647.35, -19744.99, -12131.43, 0.108, 0.910, 0.422, 23:13:47.410, 1574396027410
114, 15121.07, -2068.39, -18848.20, -16958.45, -20933.55, -17744.65, -19766.56, -12208.32, 0.000, 0.000, 0.000, 23:13:47.411, 1574396027411
115, 15136.82, -2009.11, -18993.33, -19025.36, -20980.98, -18043.78, -19753.00, -12565.50, 0.000, 0.000, 0.000, 23:13:47.418, 1574396027418
116, 15137.90, -1987.43, -18939.26, -19158.73, -20956.57, -17990.92, -19727.22, -12534.41, 0.000, 0.000, 0.000, 23:13:47.418, 1574396027418
117, 15121.63, -2043.84, -18788.65, -17124.03, -20909.36, -17689.42, -19741.26, -12174.97, 0.000, 0.000, 0.000, 23:13:47.426, 1574396027426
118, 15119.84, -2072.83, -18816.46, -16714.46, -20926.57, -17703.95, -19767.28, -12156.00, 0.000, 0.000, 0.000, 23:13:47.426, 1574396027426
119, 15128.17, -2030.25, -18982.46, -18707.00, -20987.57, -18017.56, -19768.75, -12526.61, 0.000, 0.000, 0.000, 23:13:47.433, 1574396027433
120, 15140.87, -1993.35, -18971.69, -19386.45, -20978.47, -18045.19, -19743.85, -12597.40, 0.000, 0.000, 0.000, 23:13:47.433, 1574396027433
121, 15134.99, -2032.40, -18803.45, -17483.51, -20915.35, -17734.19, -19735.29, -12234.85, 0.000, 0.000, 0.000, 23:13:47.441, 1574396027441
122, 15121.07, -2073.48, -18802.09, -16546.82, -20920.23, -17667.40, -19761.45, -12116.75, 0.000, 0.000, 0.000, 23:13:47.441, 1574396027441
123, 15136.69, -2027.35, -18960.13, -18310.30, -20973.80, -17958.08, -19760.37, -12451.35, 0.108, 0.912, 0.420, 23:13:47.451, 1574396027451
124, 15153.21, -1980.07, -18993.77, -19496.11, -20979.75, -18067.79, -19736.95, -12621.18, 0.000, 0.000, 0.000, 23:13:47.460, 1574396027460
125, 15132.47, -2020.02, -18841.25, -17884.17, -20924.90, -17789.98, -19735.25, -12311.50, 0.000, 0.000, 0.000, 23:13:47.460, 1574396027460
126, 15123.41, -2062.31, -18782.46, -16476.83, -20904.96, -17634.79, -19751.72, -12093.66, 0.000, 0.000, 0.000, 23:13:47.467, 1574396027467
127, 15129.49, -2038.99, -18940.87, -17914.52, -20962.61, -17902.76, -19762.12, -12382.22, 0.000, 0.000, 0.000, 23:13:47.467, 1574396027467
128, 15142.50, -1986.31, -19015.10, -19511.93, -20987.55, -18089.54, -19744.05, -12636.20, 0.000, 0.000, 0.000, 23:13:47.472, 1574396027472
129, 15138.57, -2001.55, -18877.05, -18298.72, -20935.72, -17859.40, -19734.76, -12391.34, 0.000, 0.000, 0.000, 23:13:47.472, 1574396027472
130, 15109.71, -2069.30, -18797.41, -16546.13, -20918.42, -17656.29, -19765.36, -12116.28, 0.000, 0.000, 0.000, 23:13:47.479, 1574396027479
131, 15103.07, -2067.34, -18935.32, -17541.40, -20978.90, -17869.71, -19787.04, -12334.07, 0.000, 0.000, 0.000, 23:13:47.480, 1574396027480
132, 15121.45, -2006.20, -19044.63, -19434.37, -21011.47, -18106.16, -19766.43, -12644.87, 0.000, 0.000, 0.000, 23:13:47.485, 1574396027485
133, 15130.43, -1993.75, -18919.95, -18681.52, -20955.45, -17918.03, -19738.51, -12460.20, 0.000, 0.000, 0.000, 23:13:47.486, 1574396027486
134, 15116.33, -2056.27, -18793.99, -16683.10, -20916.07, -17648.54, -19753.04, -12119.09, 0.116, 0.910, 0.424, 23:13:47.494, 1574396027494
135, 15116.24, -2060.20, -18889.44, -17168.91, -20953.84, -17790.22, -19770.36, -12248.80, 0.000, 0.000, 0.000, 23:13:47.494, 1574396027494
136, 15132.04, -1996.77, -19028.31, -19228.24, -20998.21, -18076.73, -19754.98, -12602.41, 0.000, 0.000, 0.000, 23:13:47.501, 1574396027501
137, 15138.01, -1981.73, -18945.25, -19012.75, -20962.83, -17966.98, -19730.94, -12514.14, 0.000, 0.000, 0.000, 23:13:47.502, 1574396027502
138, 15119.90, -2042.82, -18799.11, -16936.34, -20916.67, -17666.88, -19742.78, -12149.36, 0.000, 0.000, 0.000, 23:13:47.508, 1574396027508
139, 15111.99, -2066.73, -18862.17, -16865.71, -20947.76, -17733.70, -19767.37, -12184.56, 0.000, 0.000, 0.000, 23:13:47.515, 1574396027515
140, 15127.75, -2011.79, -19014.38, -18925.78, -21001.99, -18039.11, -19762.09, -12555.64, 0.000, 0.000, 0.000, 23:13:47.515, 1574396027515
141, 15132.53, -1986.49, -18976.41, -19273.35, -20985.18, -18015.48, -19743.83, -12577.75, 0.000, 0.000, 0.000, 23:13:47.523, 1574396027523
142, 15118.03, -2038.19, -18818.20, -17268.53, -20934.24, -17713.69, -19752.08, -12214.98, 0.000, 0.000, 0.000, 23:13:47.523, 1574396027523
143, 15109.47, -2071.63, -18833.62, -16643.71, -20945.35, -17690.04, -19774.81, -12142.63, 0.000, 0.000, 0.000, 23:13:47.531, 1574396027531
144, 15125.78, -2020.62, -18990.80, -18565.09, -20997.61, -17991.16, -19772.33, -12496.68, 0.116, 0.908, 0.424, 23:13:47.531, 1574396027531
145, 15135.84, -1981.24, -18994.96, -19450.31, -20991.13, -18057.41, -19754.00, -12614.88, 0.000, 0.000, 0.000, 23:13:47.538, 1574396027538
146, 15123.21, -2025.38, -18838.09, -17657.12, -20933.48, -17759.89, -19754.74, -12274.15, 0.000, 0.000, 0.000, 23:13:47.538, 1574396027538
147, 15110.02, -2074.11, -18807.88, -16523.57, -20926.46, -17653.14, -19776.67, -12108.21, 0.000, 0.000, 0.000, 23:13:47.546, 1574396027546
148, 15123.28, -2036.62, -18965.72, -18178.65, -20983.06, -17931.84, -19782.54, -12420.89, 0.000, 0.000, 0.000, 23:13:47.547, 1574396027547
149, 15139.22, -1983.74, -19006.60, -19533.81, -20992.82, -18067.63, -19760.08, -12620.11, 0.000, 0.000, 0.000, 23:13:47.555, 1574396027555
150, 15129.40, -2014.16, -18854.81, -18063.70, -20937.46, -17808.26, -19756.21, -12333.25, 0.000, 0.000, 0.000, 23:13:47.555, 1574396027555
151, 15116.84, -2064.94, -18777.63, -16493.24, -20911.20, -17621.80, -19774.34, -12079.35, 0.000, 0.000, 0.000, 23:13:47.561, 1574396027561
152, 15120.75, -2042.55, -18921.49, -17758.33, -20964.84, -17856.16, -19789.96, -12335.35, 0.000, 0.000, 0.000, 23:13:47.562, 1574396027562
153, 15130.48, -1992.03, -19016.01, -19496.69, -20999.55, -18075.21, -19781.81, -12621.16, 0.000, 0.000, 0.000, 23:13:47.567, 1574396027567
154, 15116.82, -2018.34, -18896.41, -18468.08, -20960.33, -17872.95, -19780.96, -12410.58, 0.114, 0.908, 0.422, 23:13:47.575, 1574396027575
155, 15106.25, -2072.83, -18789.95, -16600.13, -20922.48, -17631.64, -19795.22, -12095.62, 0.000, 0.000, 0.000, 23:13:47.575, 1574396027575
156, 15128.42, -2047.51, -18883.24, -17373.72, -20946.62, -17795.27, -19792.33, -12257.25, 0.000, 0.000, 0.000, 23:13:47.583, 1574396027583
157, 15143.24, -1990.96, -18999.23, -19341.54, -20985.36, -18058.51, -19780.98, -12594.56, 0.000, 0.000, 0.000, 23:13:47.583, 1574396027583
158, 15140.78, -1996.26, -18904.41, -18808.90, -20951.21, -17918.19, -19770.25, -12460.18, 0.000, 0.000, 0.000, 23:13:47.590, 1574396027590
159, 15128.24, -2053.10, -18765.41, -16760.28, -20905.50, -17630.99, -19778.66, -12096.85, 0.000, 0.000, 0.000, 23:13:47.590, 1574396027590
160, 15132.82, -2059.38, -18840.93, -17025.19, -20935.69, -17740.60, -19797.61, -12188.23, 0.000, 0.000, 0.000, 23:13:47.598, 1574396027598
161, 15148.92, -2002.98, -18983.49, -19100.10, -20983.08, -18037.83, -19788.27, -12553.25, 0.000, 0.000, 0.000, 23:13:47.599, 1574396027599
162, 15148.18, -1985.93, -18925.45, -19109.06, -20958.36, -17967.87, -19770.92, -12511.72, 0.000, 0.000, 0.000, 23:13:47.607, 1574396027607
163, 15135.01, -2039.31, -18770.14, -17049.73, -20902.84, -17662.53, -19774.56, -12141.74, 0.000, 0.000, 0.000, 23:13:47.607, 1574396027607
164, 15129.02, -2063.87, -18808.86, -16757.68, -20923.45, -17693.86, -19797.23, -12136.82, 0.114, 0.910, 0.424, 23:13:47.613, 1574396027613
165, 15143.44, -2011.68, -18965.90, -18781.25, -20979.39, -18005.92, -19794.35, -12507.05, 0.000, 0.000, 0.000, 23:13:47.613, 1574396027613
166, 15153.88, -1982.13, -18946.95, -19343.78, -20964.53, -18021.74, -19770.21, -12561.72, 0.000, 0.000, 0.000, 23:13:47.620, 1574396027620
167, 15144.85, -2031.35, -18786.57, -17398.89, -20905.05, -17706.69, -19767.90, -12199.72, 0.000, 0.000, 0.000, 23:13:47.620, 1574396027620
168, 15138.59, -2066.28, -18787.62, -16572.16, -20909.43, -17656.96, -19791.89, -12099.25, 0.000, 0.000, 0.000, 23:13:47.627, 1574396027627
169, 15151.71, -2021.89, -18950.75, -18405.72, -20969.33, -17958.80, -19797.16, -12445.88, 0.000, 0.000, 0.000, 23:13:47.627, 1574396027627
170, 15159.06, -1974.80, -18970.55, -19477.40, -20971.54, -18051.47, -19776.09, -12599.14, 0.000, 0.000, 0.000, 23:13:47.636, 1574396027636
171, 15140.20, -2010.94, -18813.33, -17787.58, -20917.12, -17767.33, -19771.32, -12273.63, 0.000, 0.000, 0.000, 23:13:47.643, 1574396027643
172, 15134.57, -2056.38, -18763.93, -16483.07, -20901.52, -17628.51, -19786.43, -12069.36, 0.000, 0.000, 0.000, 23:13:47.644, 1574396027644
173, 15139.24, -2031.89, -18918.18, -18003.53, -20958.07, -17898.94, -19795.24, -12370.13, 0.000, 0.000, 0.000, 23:13:47.664, 1574396027664
174, 15151.02, -1974.69, -18981.71, -19511.78, -20970.99, -18065.46, -19768.75, -12605.20, 0.120, 0.912, 0.420, 23:13:47.664, 1574396027664
175, 15147.35, -1996.23, -18835.39, -18191.97, -20914.33, -17817.56, -19758.85, -12338.07, 0.000, 0.000, 0.000, 23:13:47.664, 1574396027664
176, 15129.69, -2059.38, -18757.18, -16500.48, -20892.64, -17615.48, -19782.57, -12064.51, 0.000, 0.000, 0.000, 23:13:47.665, 1574396027665
177, 15129.25, -2047.60, -18891.72, -17596.21, -20943.38, -17835.33, -19796.18, -12293.37, 0.000, 0.000, 0.000, 23:13:47.670, 1574396027670
178, 15146.44, -1984.88, -18988.90, -19435.22, -20974.21, -18069.73, -19778.86, -12600.97, 0.000, 0.000, 0.000, 23:13:47.670, 1574396027670
179, 15146.46, -1986.73, -18863.40, -18577.47, -20927.33, -17877.80, -19759.52, -12405.02, 0.000, 0.000, 0.000, 23:13:47.674, 1574396027674
180, 15125.29, -2050.48, -18751.12, -16624.38, -20894.92, -17617.13, -19776.49, -12072.69, 0.000, 0.000, 0.000, 23:13:47.674, 1574396027674
181, 15124.96, -2049.97, -18854.28, -17216.97, -20934.89, -17767.11, -19790.88, -12215.85, 0.000, 0.000, 0.000, 23:13:47.681, 1574396027681
182, 15143.95, -1985.71, -18984.34, -19244.22, -20973.63, -18038.17, -19770.74, -12557.25, 0.000, 0.000, 0.000, 23:13:47.682, 1574396027682
183, 15146.97, -1983.74, -18904.50, -18926.74, -20944.12, -17929.76, -19758.20, -12464.05, 0.000, 0.000, 0.000, 23:13:47.689, 1574396027689
184, 15128.46, -2042.10, -18765.21, -16859.56, -20901.74, -17639.82, -19772.62, -12105.17, 0.112, 0.910, 0.422, 23:13:47.690, 1574396027690
185, 15124.15, -2056.96, -18829.60, -16904.87, -20928.50, -17714.74, -19791.84, -12156.51, 0.000, 0.000, 0.000, 23:13:47.699, 1574396027699
186, 15139.01, -2001.20, -18985.15, -18976.68, -20979.62, -18022.99, -19785.63, -12528.91, 0.000, 0.000, 0.000, 23:13:47.704, 1574396027704
187, 15141.14, -1981.06, -18941.16, -19212.60, -20957.53, -17990.76, -19766.47, -12529.52, 0.000, 0.000, 0.000, 23:13:47.704, 1574396027704
188, 15122.03, -2038.28, -18788.67, -17185.27, -20907.75, -17689.04, -19775.46, -12166.63, 0.000, 0.000, 0.000, 23:13:47.713, 1574396027713
189, 15120.04, -2066.11, -18808.21, -16681.62, -20919.42, -17680.25, -19793.74, -12119.38, 0.000, 0.000, 0.000, 23:13:47.713, 1574396027713
190, 15113.40, -2037.20, -18988.28, -18662.41, -20993.23, -18008.29, -19812.72, -12505.73, 0.000, 0.000, 0.000, 23:13:47.718, 1574396027718
191, 15119.70, -1998.11, -18986.62, -19426.93, -20984.00, -18049.01, -19787.53, -12595.48, 0.000, 0.000, 0.000, 23:13:47.719, 1574396027719
192, 15126.90, -2019.41, -18809.46, -17555.69, -20910.10, -17725.78, -19763.21, -12217.28, 0.000, 0.000, 0.000, 23:13:47.725, 1574396027725
193, 15126.52, -2059.51, -18785.88, -16526.63, -20906.79, -17641.83, -19780.73, -12075.46, 0.000, 0.000, 0.000, 23:13:47.725, 1574396027725
194, 15132.49, -2026.74, -18948.22, -18248.90, -20967.50, -17932.33, -19789.76, -12410.25, 0.110, 0.910, 0.424, 23:13:47.733, 1574396027733
195, 15144.49, -1978.49, -18988.19, -19516.20, -20980.71, -18057.95, -19772.42, -12601.64, 0.000, 0.000, 0.000, 23:13:47.733, 1574396027733
196, 15137.81, -2006.38, -18829.06, -17959.60, -20923.82, -17787.34, -19764.44, -12299.52, 0.000, 0.000, 0.000, 23:13:47.741, 1574396027741
197, 15117.02, -2066.58, -18781.14, -16492.14, -20916.65, -17634.50, -19793.88, -12081.72, 0.000, 0.000, 0.000, 23:13:47.742, 1574396027742
198, 15124.15, -2042.79, -18925.65, -17845.16, -20969.71, -17881.37, -19799.31, -12348.53, 0.000, 0.000, 0.000, 23:13:47.748, 1574396027748
199, 15138.37, -1987.23, -19004.84, -19507.44, -20993.67, -18077.69, -19777.29, -12610.52, 0.000, 0.000, 0.000, 23:13:47.748, 1574396027748
200, 15138.21, -2001.69, -18864.98, -18359.50, -20940.92, -17849.41, -19761.29, -12369.03, 0.000, 0.000, 0.000, 23:13:47.755, 1574396027755
201, 15117.85, -2062.69, -18772.98, -16546.86, -20916.72, -17628.24, -19785.63, -12079.35, 0.000, 0.000, 0.000, 23:13:47.765, 1574396027765
202, 15128.08, -2049.72, -18893.57, -17454.97, -20963.92, -17827.91, -19800.31, -12282.01, 0.000, 0.000, 0.000, 23:13:47.765, 1574396027765
203, 15142.95, -1988.99, -19014.65, -19386.20, -21003.46, -18082.92, -19786.97, -12611.21, 0.000, 0.000, 0.000, 23:13:47.771, 1574396027771
204, 15139.01, -1992.12, -18909.11, -18743.21, -20963.34, -17924.33, -19772.33, -12461.63, 0.000, 0.000, 0.000, 23:13:47.771, 1574396027771
205, 15121.07, -2050.46, -18777.77, -16729.19, -20920.09, -17646.68, -19784.18, -12116.19, 0.106, 0.914, 0.420, 23:13:47.777, 1574396027777
206, 15119.88, -2060.94, -18872.02, -17112.74, -20961.58, -17774.38, -19806.84, -12225.24, 0.000, 0.000, 0.000, 23:13:47.778, 1574396027778
207, 15135.97, -2005.87, -19021.02, -19186.71, -21014.37, -18070.85, -19799.80, -12588.17, 0.000, 0.000, 0.000, 23:13:47.785, 1574396027785
208, 15130.77, -1991.03, -18947.17, -19078.93, -20982.65, -17982.36, -19779.42, -12525.05, 0.000, 0.000, 0.000, 23:13:47.786, 1574396027786
209, 15116.73, -2042.75, -18788.63, -16998.14, -20925.95, -17677.08, -19781.05, -12153.18, 0.000, 0.000, 0.000, 23:13:47.793, 1574396027793
210, 15116.08, -2062.10, -18839.05, -16823.29, -20949.78, -17722.23, -19798.41, -12161.81, 0.000, 0.000, 0.000, 23:13:47.793, 1574396027793
211, 15134.32, -2006.23, -18991.96, -18869.92, -21001.05, -18028.22, -19789.45, -12528.53, 0.000, 0.000, 0.000, 23:13:47.801, 1574396027801
212, 15130.43, -1988.61, -18973.97, -19324.07, -20995.69, -18032.85, -19777.22, -12573.15, 0.000, 0.000, 0.000, 23:13:47.801, 1574396027801
213, 15103.03, -2052.81, -18826.22, -17354.54, -20954.25, -17741.27, -19795.64, -12227.72, 0.000, 0.000, 0.000, 23:13:47.809, 1574396027809
214, 15122.14, -2062.55, -18810.24, -16616.69, -20939.87, -17685.04, -19795.35, -12126.09, 0.000, 0.000, 0.000, 23:13:47.809, 1574396027809
215, 15134.41, -2017.51, -18974.04, -18503.15, -20998.61, -17990.90, -19798.71, -12481.17, 0.100, 0.910, 0.408, 23:13:47.815, 1574396027815
216, 15136.24, -1980.14, -18993.28, -19481.31, -21001.94, -18066.51, -19779.57, -12612.04, 0.000, 0.000, 0.000, 23:13:47.823, 1574396027823
217, 15125.56, -2015.34, -18830.49, -17724.73, -20943.03, -17772.52, -19771.99, -12272.02, 0.000, 0.000, 0.000, 23:13:47.823, 1574396027823
218, 15122.14, -2055.89, -18787.96, -16501.02, -20928.99, -17651.17, -19786.75, -12088.07, 0.000, 0.000, 0.000, 23:13:47.830, 1574396027830
219, 15133.09, -2023.41, -18943.91, -18097.74, -20984.06, -17927.93, -19794.50, -12399.18, 0.000, 0.000, 0.000, 23:13:47.830, 1574396027830
220, 15139.15, -1977.32, -19007.99, -19539.51, -21001.79, -18091.30, -19780.22, -12627.89, 0.000, 0.000, 0.000, 23:13:47.838, 1574396027838
221, 15130.61, -2007.25, -18869.68, -18135.36, -20950.76, -17836.63, -19774.61, -12348.80, 0.000, 0.000, 0.000, 23:13:47.839, 1574396027839
222, 15117.13, -2064.85, -18790.31, -16518.30, -20932.99, -17646.08, -19798.55, -12092.54, 0.000, 0.000, 0.000, 23:13:47.847, 1574396027847
223, 15119.28, -2044.78, -18923.05, -17706.45, -20983.53, -17877.51, -19809.23, -12339.75, 0.000, 0.000, 0.000, 23:13:47.848, 1574396027848
224, 15136.44, -1984.21, -19020.31, -19491.48, -21011.47, -18100.13, -19791.04, -12633.32, 0.000, 0.000, 0.000, 23:13:47.853, 1574396027853
225, 15123.41, -2001.89, -18903.45, -18534.11, -20971.57, -17903.97, -19785.72, -12429.67, 0.104, 0.910, 0.412, 23:13:47.853, 1574396027853
226, 15111.30, -2058.75, -18787.00, -16614.43, -20930.78, -17648.76, -19794.10, -12101.39, 0.000, 0.000, 0.000, 23:13:47.860, 1574396027860
227, 15123.10, -2051.98, -18895.16, -17322.62, -20969.36, -17816.53, -19804.72, -12266.66, 0.000, 0.000, 0.000, 23:13:47.860, 1574396027860
228, 15139.60, -1988.99, -19022.59, -19328.20, -21009.70, -18089.36, -19789.41, -12609.76, 0.000, 0.000, 0.000, 23:13:47.899, 1574396027899
229, 15138.81, -1988.46, -18932.04, -18891.54, -20975.03, -17962.76, -19774.68, -12495.07, 0.000, 0.000, 0.000, 23:13:47.899, 1574396027899
230, 15126.01, -2044.40, -18789.41, -16828.67, -20926.96, -17669.63, -19783.06, -12136.26, 0.000, 0.000, 0.000, 23:13:47.899, 1574396027899
231, 15126.61, -2055.04, -18857.67, -16992.40, -20952.19, -17756.94, -19794.35, -12198.11, 0.000, 0.000, 0.000, 23:13:47.899, 1574396027899
232, 15137.32, -2005.38, -19011.16, -19081.19, -21004.34, -18062.36, -19786.57, -12567.29, 0.000, 0.000, 0.000, 23:13:47.899, 1574396027899
233, 15141.03, -1985.75, -18956.87, -19185.89, -20979.73, -18006.54, -19767.23, -12542.48, 0.000, 0.000, 0.000, 23:13:47.900, 1574396027900
234, 15122.65, -2040.02, -18806.58, -17133.48, -20932.50, -17704.01, -19779.84, -12178.57, 0.000, 0.000, 0.000, 23:13:47.900, 1574396027900
235, 15116.80, -2069.03, -18851.66, -16754.06, -20958.58, -17730.83, -19809.14, -12163.19, 0.106, 0.910, 0.416, 23:13:47.900, 1574396027900
236, 15133.11, -2017.24, -19004.50, -18749.78, -21012.81, -18034.64, -19804.09, -12526.95, 0.000, 0.000, 0.000, 23:13:47.900, 1574396027900
237, 15145.27, -1976.65, -18982.71, -19402.14, -20993.52, -18051.36, -19772.58, -12591.21, 0.000, 0.000, 0.000, 23:13:47.905, 1574396027905
238, 15131.82, -2022.14, -18828.08, -17485.70, -20939.74, -17750.95, -19777.54, -12240.89, 0.000, 0.000, 0.000, 23:13:47.906, 1574396027906
239, 15121.71, -2063.00, -18819.10, -16563.22, -20947.23, -17687.76, -19806.51, -12128.75, 0.000, 0.000, 0.000, 23:13:47.912, 1574396027912
240, 15126.34, -2029.11, -18980.79, -18360.33, -21011.33, -17990.00, -19816.52, -12472.74, 0.000, 0.000, 0.000, 23:13:47.913, 1574396027913
241, 15142.26, -1976.65, -19005.51, -19523.78, -21011.55, -18089.33, -19784.33, -12626.01, 0.000, 0.000, 0.000, 23:13:47.921, 1574396027921
242, 15132.29, -2009.24, -18854.72, -17887.90, -20956.93, -17801.44, -19777.81, -12301.86, 0.000, 0.000, 0.000, 23:13:47.921, 1574396027921
243, 15118.05, -2060.47, -18810.04, -16499.39, -20950.94, -17659.60, -19805.46, -12096.23, 0.000, 0.000, 0.000, 23:13:47.928, 1574396027928
244, 15130.43, -2032.33, -18956.98, -17952.63, -21005.23, -17918.16, -19812.18, -12385.39, 0.000, 0.000, 0.000, 23:13:47.928, 1574396027928
245, 15145.52, -1976.70, -19028.40, -19535.74, -21024.74, -18101.52, -19793.41, -12641.41, 0.108, 0.910, 0.418, 23:13:47.935, 1574396027935
246, 15135.15, -1997.17, -18890.33, -18293.25, -20970.76, -17864.70, -19779.10, -12381.91, 0.000, 0.000, 0.000, 23:13:47.936, 1574396027936
247, 15111.88, -2065.41, -18804.10, -16549.66, -20946.96, -17653.94, -19800.00, -12094.10, 0.000, 0.000, 0.000, 23:13:47.942, 1574396027942
248, 15114.74, -2055.33, -18935.53, -17563.29, -20996.13, -17865.73, -19812.38, -12313.33, 0.000, 0.000, 0.000, 23:13:47.953, 1574396027953
249, 15135.62, -1994.20, -19043.15, -19453.91, -21027.22, -18108.20, -19789.43, -12626.68, 0.000, 0.000, 0.000, 23:13:47.954, 1574396027954
250, 15133.07, -2000.53, -18921.11, -18691.06, -20980.02, -17929.38, -19770.03, -12447.78, 0.000, 0.000, 0.000, 23:13:47.960, 1574396027960
251, 15098.16, -2076.90, -18814.00, -16714.59, -20956.64, -17680.14, -19803.58, -12128.12, 0.000, 0.000, 0.000, 23:13:47.960, 1574396027960
252, 15109.06, -2072.36, -18905.48, -17216.16, -20990.03, -17817.22, -19816.59, -12258.72, 0.000, 0.000, 0.000, 23:13:47.966, 1574396027966
253, 15137.47, -1998.29, -19026.63, -19248.90, -21019.42, -18090.96, -19790.17, -12600.15, 0.000, 0.000, 0.000, 23:13:47.966, 1574396027966
254, 15138.39, -1987.96, -18955.08, -19023.59, -20990.54, -17991.86, -19778.19, -12521.47, 0.000, 0.000, 0.000, 23:13:47.973, 1574396027973
255, 15116.77, -2049.90, -18814.38, -16954.18, -20946.58, -17695.23, -19795.35, -12163.24, 0.100, 0.914, 0.418, 23:13:47.974, 1574396027974
0, 15114.09, -2070.93, -18871.49, -16901.63, -20972.39, -17762.46, -19817.26, -12204.21, 0.000, 0.000, 0.000, 23:13:47.981, 1574396027981
1, 15128.42, -2018.45, -19028.42, -18973.28, -21027.00, -18073.11, -19810.11, -12573.79, 0.000, 0.000, 0.000, 23:13:47.982, 1574396027982
2, 15127.53, -1995.12, -18991.76, -19304.40, -21009.95, -18051.80, -19788.09, -12585.15, 0.000, 0.000, 0.000, 23:13:47.987, 1574396027987
3, 15111.37, -2047.67, -18833.00, -17286.39, -20953.29, -17739.51, -19788.98, -12216.43, 0.000, 0.000, 0.000, 23:13:47.988, 1574396027988
4, 15110.09, -2070.89, -18843.91, -16681.71, -20962.07, -17711.99, -19806.04, -12146.21, 0.000, 0.000, 0.000, 23:13:48.002, 1574396028002
5, 15128.64, -2020.91, -19000.37, -18609.77, -21013.68, -18014.88, -19802.15, -12500.91, 0.000, 0.000, 0.000, 23:13:48.002, 1574396028002
6, 15131.88, -1990.42, -19017.38, -19477.62, -21017.61, -18083.92, -19787.62, -12618.88, 0.000, 0.000, 0.000, 23:13:48.003, 1574396028003
7, 15126.12, -2027.01, -18851.82, -17658.35, -20956.82, -17779.87, -19780.69, -12273.21, 0.000, 0.000, 0.000, 23:13:48.013, 1574396028013
8, 15114.32, -2072.21, -18826.61, -16544.45, -20952.86, -17684.28, -19803.82, -12119.79, 0.000, 0.000, 0.000, 23:13:48.013, 1574396028013
9, 15124.24, -2036.04, -18986.51, -18220.25, -21013.81, -17971.90, -19812.00, -12441.83, 0.098, 0.910, 0.422, 23:13:48.018, 1574396028018
10, 15130.36, -1991.92, -19034.68, -19559.56, -21029.30, -18116.38, -19796.60, -12647.87, 0.000, 0.000, 0.000, 23:13:48.018, 1574396028018
11, 15125.63, -2013.51, -18878.55, -18066.78, -20972.53, -17850.04, -19786.70, -12354.99, 0.000, 0.000, 0.000, 23:13:48.026, 1574396028026
12, 15112.55, -2068.01, -18813.15, -16522.30, -20957.42, -17669.90, -19807.27, -12110.46, 0.000, 0.000, 0.000, 23:13:48.026, 1574396028026
13, 15125.49, -2042.70, -18952.58, -17812.71, -21010.42, -17909.16, -19815.20, -12369.25, 0.000, 0.000, 0.000, 23:13:48.033, 1574396028033
14, 15140.09, -1986.94, -19042.61, -19533.37, -21040.70, -18118.46, -19799.20, -12648.32, 0.000, 0.000, 0.000, 23:13:48.034, 1574396028034
15, 15133.83, -2002.85, -18916.55, -18467.59, -20997.61, -17907.97, -19794.44, -12431.28, 0.000, 0.000, 0.000, 23:13:48.041, 1574396028041
16, 15115.08, -2061.19, -18812.84, -16600.24, -20968.26, -17673.77, -19814.91, -12128.48, 0.000, 0.000, 0.000, 23:13:48.041, 1574396028041
17, 15121.47, -2050.79, -18928.11, -17417.17, -21011.29, -17854.75, -19824.59, -12306.58, 0.000, 0.000, 0.000, 23:13:48.048, 1574396028048
18, 15128.20, -2000.64, -19060.90, -19400.31, -21058.99, -18128.25, -19818.60, -12652.00, 0.000, 0.000, 0.000, 23:13:48.048, 1574396028048
19, 15127.17, -1998.92, -18962.50, -18845.94, -21023.13, -17983.90, -19803.55, -12513.15, 0.000, 0.000, 0.000, 23:13:48.057, 1574396028057
20, 15123.95, -2044.56, -18812.99, -16785.71, -20965.85, -17687.67, -19802.68, -12147.30, 0.102, 0.914, 0.422, 23:13:48.057, 1574396028057
21, 15119.48, -2051.13, -18892.19, -17081.56, -20995.48, -17799.72, -19817.32, -12240.84, 0.000, 0.000, 0.000, 23:13:48.063, 1574396028063
22, 15138.46, -1997.51, -19038.52, -19164.94, -21043.81, -18098.52, -19807.29, -12605.96, 0.000, 0.000, 0.000, 23:13:48.069, 1574396028069
23, 15140.38, -1983.85, -18976.21, -19147.11, -21018.33, -18029.68, -19790.90, -12563.74, 0.000, 0.000, 0.000, 23:13:48.070, 1574396028070
24, 15114.72, -2046.97, -18832.75, -17077.89, -20973.56, -17728.22, -19804.90, -12197.15, 0.000, 0.000, 0.000, 23:13:48.077, 1574396028077
25, 15117.00, -2061.95, -18869.48, -16815.73, -20987.46, -17752.67, -19817.37, -12186.15, 0.000, 0.000, 0.000, 23:13:48.078, 1574396028078
26, 15143.40, -2001.76, -19024.62, -18842.47, -21035.09, -18055.31, -19805.48, -12547.93, 0.000, 0.000, 0.000, 23:13:48.085, 1574396028085
27, 15141.38, -1977.64, -19008.41, -19382.74, -21030.02, -18070.16, -19793.01, -12609.20, 0.000, 0.000, 0.000, 23:13:48.085, 1574396028085
28, 15118.14, -2032.42, -18851.66, -17434.61, -20981.94, -17776.39, -19805.66, -12263.78, 0.000, 0.000, 0.000, 23:13:48.092, 1574396028092
29, 15114.76, -2066.17, -18853.03, -16627.93, -20989.43, -17724.35, -19825.59, -12161.94, 0.000, 0.000, 0.000, 23:13:48.092, 1574396028092
30, 15119.75, -2028.04, -19016.46, -18474.28, -21048.68, -18023.62, -19824.23, -12502.27, 0.112, 0.912, 0.416, 23:13:48.100, 1574396028100
31, 15124.26, -1989.84, -19039.71, -19533.48, -21050.78, -18115.60, -19802.26, -12651.40, 0.000, 0.000, 0.000, 23:13:48.100, 1574396028100
32, 15121.80, -2020.51, -18876.88, -17824.51, -20992.15, -17823.77, -19794.73, -12321.94, 0.000, 0.000, 0.000, 23:13:48.108, 1574396028108
33, 15114.07, -2065.46, -18834.27, -16536.85, -20984.35, -17696.77, -19816.99, -12130.20, 0.000, 0.000, 0.000, 23:13:48.108, 1574396028108
34, 15117.67, -2039.13, -18994.27, -18080.71, -21045.08, -17973.51, -19829.30, -12440.51, 0.000, 0.000, 0.000, 23:13:48.115, 1574396028115
35, 15127.08, -1987.09, -19059.13, -19577.27, -21061.09, -18141.14, -19809.81, -12677.13, 0.000, 0.000, 0.000, 23:13:48.115, 1574396028115
36, 15124.22, -2011.37, -18914.80, -18239.11, -21008.05, -17888.70, -19801.50, -12407.83, 0.000, 0.000, 0.000, 23:13:48.122, 1574396028122
37, 15103.70, -2069.77, -18839.41, -16560.68, -20988.64, -17690.87, -19825.64, -12141.29, 0.000, 0.000, 0.000, 23:13:48.122, 1574396028122
38, 15102.29, -2052.02, -18974.04, -17684.23, -21038.56, -17916.98, -19837.31, -12377.97, 0.000, 0.000, 0.000, 23:13:48.129, 1574396028129
39, 15115.88, -2001.58, -19079.92, -19522.30, -21072.91, -18153.66, -19823.43, -12682.65, 0.000, 0.000, 0.000, 23:13:48.138, 1574396028138
40, 15115.68, -2009.73, -18964.00, -18645.80, -21030.17, -17957.32, -19807.82, -12482.29, 0.108, 0.908, 0.420, 23:13:48.139, 1574396028139
41, 15103.36, -2064.34, -18839.37, -16696.17, -20988.11, -17693.64, -19816.30, -12144.08, 0.000, 0.000, 0.000, 23:13:48.146, 1574396028146
42, 15099.72, -2069.19, -18952.09, -17325.53, -21035.88, -17861.19, -19838.71, -12306.69, 0.000, 0.000, 0.000, 23:13:48.147, 1574396028147
43, 15118.00, -2010.07, -19083.03, -19357.93, -21078.81, -18135.69, -19822.46, -12653.93, 0.000, 0.000, 0.000, 23:13:48.152, 1574396028152
44, 15116.31, -2003.03, -18990.94, -18997.60, -21040.10, -18008.96, -19796.07, -12531.19, 0.000, 0.000, 0.000, 23:13:48.153, 1574396028153
45, 15101.49, -2056.67, -18843.12, -16919.40, -20989.58, -17714.58, -19804.38, -12171.13, 0.000, 0.000, 0.000, 23:13:48.160, 1574396028160
46, 15108.86, -2064.63, -18909.44, -16998.86, -21014.44, -17796.75, -19824.19, -12237.62, 0.000, 0.000, 0.000, 23:13:48.160, 1574396028160
47, 15111.70, -2019.28, -19075.56, -19085.39, -21079.88, -18116.22, -19828.03, -12616.93, 0.000, 0.000, 0.000, 23:13:48.167, 1574396028167
48, 15097.04, -2012.80, -19042.88, -19296.44, -21075.50, -18084.57, -19821.71, -12610.67, 0.000, 0.000, 0.000, 23:13:48.167, 1574396028167
49, 15101.33, -2050.26, -18866.91, -17237.75, -21004.87, -17757.28, -19810.73, -12222.87, 0.000, 0.000, 0.000, 23:13:48.175, 1574396028175
50, 15103.81, -2069.57, -18882.02, -16749.37, -21008.61, -17745.88, -19820.97, -12174.30, 0.100, 0.912, 0.420, 23:13:48.175, 1574396028175
51, 15114.65, -2020.78, -19047.35, -18731.74, -21067.52, -18058.13, -19819.74, -12542.75, 0.000, 0.000, 0.000, 23:13:48.183, 1574396028183
52, 15128.62, -1981.12, -19039.21, -19466.40, -21056.26, -18091.93, -19794.57, -12630.01, 0.000, 0.000, 0.000, 23:13:48.183, 1574396028183
53, 15115.34, -2024.87, -18876.99, -17588.19, -21001.72, -17788.23, -19795.75, -12280.27, 0.000, 0.000, 0.000, 23:13:48.190, 1574396028190
54, 15111.54, -2058.84, -18855.98, -16577.93, -20999.29, -17699.25, -19812.23, -12135.92, 0.000, 0.000, 0.000, 23:13:48.197, 1574396028197
55, 15131.44, -2015.81, -19010.47, -18313.19, -21054.58, -17980.50, -19810.28, -12459.51, 0.000, 0.000, 0.000, 23:13:48.198, 1574396028198
56, 15145.12, -1963.58, -19046.59, -19551.52, -21056.79, -18101.43, -19783.75, -12641.88, 0.000, 0.000, 0.000, 23:13:48.205, 1574396028205
57, 15118.63, -2007.95, -18904.81, -17983.32, -21009.88, -17840.67, -19788.87, -12347.19, 0.000, 0.000, 0.000, 23:13:48.205, 1574396028205
58, 15096.39, -2071.96, -18850.75, -16535.46, -21005.34, -17695.00, -19821.95, -12133.76, 0.000, 0.000, 0.000, 23:13:48.213, 1574396028213
59, 15101.46, -2050.82, -19001.46, -17930.10, -21062.25, -17957.86, -19836.08, -12420.01, 0.000, 0.000, 0.000, 23:13:48.213, 1574396028213
60, 15111.52, -1996.01, -19085.24, -19583.62, -21087.69, -18161.33, -19821.26, -12693.89, 0.100, 0.910, 0.418, 23:13:48.220, 1574396028220
61, 15107.34, -2014.85, -18952.00, -18419.42, -21035.81, -17934.73, -19810.55, -12453.74, 0.000, 0.000, 0.000, 23:13:48.221, 1574396028221
62, 15089.64, -2082.60, -18858.81, -16621.81, -21005.65, -17710.49, -19827.05, -12155.86, 0.000, 0.000, 0.000, 23:13:48.227, 1574396028227
63, 15087.61, -2079.20, -18983.22, -17561.92, -21058.14, -17914.10, -19843.19, -12361.77, 0.000, 0.000, 0.000, 23:13:48.227, 1574396028227
64, 15105.87, -2016.40, -19097.24, -19494.79, -21096.56, -18168.95, -19829.35, -12690.36, 0.000, 0.000, 0.000, 23:13:48.235, 1574396028235
65, 15106.18, -2014.92, -18984.63, -18804.21, -21049.58, -18000.13, -19810.28, -12526.97, 0.000, 0.000, 0.000, 23:13:48.236, 1574396028236
66, 15089.66, -2070.80, -18859.33, -16787.48, -21007.93, -17724.66, -19824.81, -12181.32, 0.000, 0.000, 0.000, 23:13:48.243, 1574396028243
67, 15079.92, -2081.77, -18962.08, -17206.53, -21052.12, -17860.70, -19850.61, -12304.39, 0.000, 0.000, 0.000, 23:13:48.243, 1574396028243
68, 15083.45, -2038.26, -19119.12, -19288.37, -21115.80, -18169.62, -19855.32, -12683.14, 0.000, 0.000, 0.000, 23:13:48.249, 1574396028249
69, 15097.26, -2019.39, -19027.48, -19136.54, -21071.70, -18065.01, -19822.44, -12601.26, 0.000, 0.000, 0.000, 23:13:48.258, 1574396028258
70, 15086.91, -2064.72, -18866.28, -17040.10, -21013.12, -17752.96, -19822.35, -12223.03, 0.102, 0.912, 0.420, 23:13:48.258, 1574396028258
71, 15075.60, -2088.93, -18929.74, -16909.47, -21046.71, -17814.41, -19851.66, -12253.83, 0.000, 0.000, 0.000, 23:13:48.266, 1574396028266
72, 15073.08, -2047.22, -19086.91, -18969.25, -21098.97, -18119.37, -19840.01, -12615.26, 0.000, 0.000, 0.000, 23:13:48.266, 1574396028266
73, 15065.92, -2031.95, -19056.00, -19386.74, -21083.97, -18105.63, -19817.86, -12643.93, 0.000, 0.000, 0.000, 23:13:48.273, 1574396028273
74, 15041.72, -2087.38, -18895.72, -17392.21, -21028.05, -17795.74, -19821.17, -12279.11, 0.000, 0.000, 0.000, 23:13:48.273, 1574396028273
75, 15014.61, -2136.27, -18907.32, -16696.78, -21037.28, -17761.88, -19838.31, -12193.64, 0.000, 0.000, 0.000, 23:13:48.279, 1574396028279
76, 15009.51, -2104.66, -19068.27, -18603.42, -21094.41, -18068.35, -19837.02, -12547.11, 0.000, 0.000, 0.000, 23:13:48.279, 1574396028279
77, 14999.76, -2086.96, -19077.82, -19557.91, -21092.16, -18144.18, -19818.15, -12679.63, 0.000, 0.000, 0.000, 23:13:48.287, 1574396028287
78, 14959.15, -2154.62, -18930.88, -17790.83, -21041.95, -17860.05, -19826.62, -12353.07, 0.000, 0.000, 0.000, 23:13:48.287, 1574396028287
79, 14930.65, -2216.13, -18905.91, -16608.66, -21040.46, -17754.71, -19852.17, -12180.52, 0.000, 0.000, 0.000, 23:13:48.295, 1574396028295
80, 14923.75, -2199.34, -19066.39, -18227.27, -21100.02, -18031.93, -19859.86, -12493.06, 0.098, 0.912, 0.422, 23:13:48.296, 1574396028296
81, 14924.57, -2160.45, -19116.31, -19642.40, -21113.35, -18184.42, -19837.69, -12713.60, 0.000, 0.000, 0.000, 23:13:48.303, 1574396028303
82, 14901.19, -2197.33, -18969.95, -18213.70, -21059.32, -17928.15, -19829.89, -12429.07, 0.000, 0.000, 0.000, 23:13:48.303, 1574396028303
83, 14879.42, -2259.78, -18895.11, -16604.82, -21040.17, -17739.28, -19848.37, -12169.41, 0.000, 0.000, 0.000, 23:13:48.310, 1574396028310
84, 14889.23, -2244.79, -19034.57, -17826.16, -21092.25, -17973.08, -19856.46, -12417.09, 0.000, 0.000, 0.000, 23:13:48.318, 1574396028318
85, 14911.34, -2186.65, -19128.89, -19597.96, -21119.25, -18192.55, -19836.77, -12704.89, 0.000, 0.000, 0.000, 23:13:48.318, 1574396028318
86, 14910.98, -2193.91, -19000.86, -18607.13, -21067.70, -17983.68, -19823.63, -12489.93, 0.000, 0.000, 0.000, 23:13:48.325, 1574396028325
87, 14897.19, -2251.54, -18890.46, -16701.98, -21036.79, -17737.23, -19842.74, -12173.63, 0.000, 0.000, 0.000, 23:13:48.325, 1574396028325
88, 14907.14, -2242.33, -18998.02, -17438.58, -21080.62, -17907.37, -19855.63, -12344.85, 0.000, 0.000, 0.000, 23:13:48.332, 1574396028332
89, 14937.42, -2167.87, -19112.39, -19434.64, -21112.00, -18168.41, -19831.14, -12679.07, 0.000, 0.000, 0.000, 23:13:48.332, 1574396028332
