%OpenBCI Raw EEG Data
%Number of channels = 8
%Sample Rate = 250.0 Hz
%First Column = SampleIndex
%Last Column = Timestamp 
%Other Columns = EEG data in microvolts followed by Accel Data (in G) interleaved with Aux Data
0, 13059.81, -6071.87, -21513.82, -20952.73, -23922.69, -21434.65, -22617.53, -15918.35, 0.050, 0.442, 0.234, 23:07:16.419, 1574395636419
1, 13037.30, -6137.25, -21401.32, -18883.47, -23886.17, -21186.97, -22636.77, -15601.16, 0.000, 0.000, 0.000, 23:07:16.427, 1574395636427
2, 13038.04, -6135.69, -21501.97, -19439.40, -23926.31, -21337.69, -22650.79, -15736.86, 0.000, 0.000, 0.000, 23:07:16.427, 1574395636427
3, 13065.67, -6069.30, -21630.65, -21571.29, -23972.63, -21603.41, -22633.64, -16068.67, 0.000, 0.000, 0.000, 23:07:16.435, 1574395636435
4, 13061.49, -6062.84, -21554.19, -21293.68, -23942.32, -21491.07, -22618.49, -15972.80, 0.000, 0.000, 0.000, 23:07:16.435, 1574395636435
5, 13029.08, -6135.64, -21426.63, -19138.81, -23908.99, -21221.17, -22650.29, -15643.47, 0.000, 0.000, 0.000, 23:07:16.442, 1574395636442
6, 13027.62, -6148.83, -21493.68, -19128.87, -23942.34, -21298.75, -22674.06, -15698.68, 0.000, 0.000, 0.000, 23:07:16.442, 1574395636442
7, 13069.78, -6070.93, -21626.79, -21275.82, -23977.16, -21575.04, -22642.74, -16032.01, 0.076, 0.666, 0.344, 23:07:16.450, 1574395636450
8, 13070.38, -6054.13, -21590.40, -21585.03, -23957.65, -21546.14, -22628.48, -16035.74, 0.000, 0.000, 0.000, 23:07:16.450, 1574395636450
9, 13041.44, -6118.83, -21440.82, -19476.46, -23910.49, -21255.99, -22646.72, -15692.87, 0.000, 0.000, 0.000, 23:07:16.457, 1574395636457
10, 13042.47, -6142.19, -21458.52, -18881.84, -23922.54, -21246.74, -22667.04, -15644.90, 0.000, 0.000, 0.000, 23:07:16.457, 1574395636457
11, 13058.31, -6092.17, -21618.29, -20916.98, -23983.73, -21544.11, -22662.70, -15991.06, 0.000, 0.000, 0.000, 23:07:16.465, 1574395636465
12, 13072.57, -6053.19, -21620.66, -21784.88, -23977.10, -21590.76, -22634.29, -16079.87, 0.000, 0.000, 0.000, 23:07:16.465, 1574395636465
13, 13054.56, -6102.94, -21470.46, -19870.19, -23920.77, -21307.58, -22644.60, -15756.55, 0.000, 0.000, 0.000, 23:07:16.473, 1574395636473
14, 13038.51, -6147.67, -21446.77, -18743.05, -23916.16, -21226.80, -22671.75, -15623.76, 0.000, 0.000, 0.000, 23:07:16.473, 1574395636473
15, 13067.92, -6092.01, -21590.60, -20500.26, -23960.33, -21489.19, -22656.33, -15916.14, 0.000, 0.000, 0.000, 23:07:16.480, 1574395636480
16, 13081.87, -6039.28, -21630.32, -21867.11, -23969.45, -21604.73, -22631.63, -16091.85, 0.000, 0.000, 0.000, 23:07:16.486, 1574395636486
17, 13059.54, -6079.61, -21495.94, -20296.90, -23925.35, -21354.86, -22643.23, -15816.03, 0.094, 0.780, 0.404, 23:07:16.486, 1574395636486
18, 13041.44, -6138.46, -21444.53, -18717.06, -23922.67, -21210.53, -22680.18, -15606.72, 0.000, 0.000, 0.000, 23:07:16.494, 1574395636494
19, 13042.49, -6119.44, -21592.66, -20098.44, -23989.70, -21465.14, -22695.67, -15876.15, 0.000, 0.000, 0.000, 23:07:16.495, 1574395636495
20, 13069.31, -6052.87, -21657.63, -21858.91, -23998.66, -21639.82, -22657.72, -16121.37, 0.000, 0.000, 0.000, 23:07:16.502, 1574395636502
21, 13057.62, -6074.35, -21530.59, -20717.65, -23948.82, -21425.46, -22649.45, -15898.82, 0.000, 0.000, 0.000, 23:07:16.502, 1574395636502
22, 13032.16, -6137.48, -21445.29, -18790.06, -23922.40, -21203.11, -22671.46, -15610.73, 0.000, 0.000, 0.000, 23:07:16.509, 1574395636509
23, 13044.28, -6124.69, -21561.14, -19673.40, -23968.29, -21380.83, -22673.63, -15785.49, 0.000, 0.000, 0.000, 23:07:16.509, 1574395636509
24, 13074.61, -6051.89, -21663.13, -21714.27, -23995.74, -21619.97, -22642.76, -16087.69, 0.000, 0.000, 0.000, 23:07:16.516, 1574395636516
25, 13064.57, -6057.41, -21574.46, -21100.13, -23964.20, -21475.82, -22639.16, -15947.66, 0.000, 0.000, 0.000, 23:07:16.517, 1574395636517
26, 13034.78, -6127.93, -21455.60, -18986.29, -23931.36, -21217.35, -22668.83, -15624.61, 0.000, 0.000, 0.000, 23:07:16.525, 1574395636525
27, 13041.48, -6130.35, -21531.19, -19320.42, -23963.15, -21336.37, -22681.83, -15724.47, 0.104, 0.834, 0.436, 23:07:16.525, 1574395636525
28, 13065.73, -6066.00, -21671.96, -21480.96, -24005.28, -21611.99, -22661.63, -16064.49, 0.000, 0.000, 0.000, 23:07:16.533, 1574395636533
29, 13063.32, -6054.71, -21611.65, -21447.12, -23983.00, -21534.09, -22648.20, -16011.09, 0.000, 0.000, 0.000, 23:07:16.533, 1574395636533
30, 13038.13, -6122.14, -21469.50, -19290.16, -23945.47, -21253.69, -22676.29, -15671.05, 0.000, 0.000, 0.000, 23:07:16.539, 1574395636539
31, 13027.85, -6147.04, -21522.34, -19053.43, -23976.63, -21302.53, -22704.99, -15687.35, 0.000, 0.000, 0.000, 23:07:16.547, 1574395636547
32, 13044.17, -6095.05, -21689.42, -21190.37, -24036.08, -21601.64, -22696.18, -16041.94, 0.000, 0.000, 0.000, 23:07:16.547, 1574395636547
33, 13061.84, -6053.52, -21659.09, -21709.56, -24012.57, -21586.04, -22665.52, -16067.22, 0.000, 0.000, 0.000, 23:07:16.556, 1574395636556
34, 13057.29, -6086.96, -21483.85, -19638.62, -23942.54, -21275.51, -22661.96, -15711.62, 0.000, 0.000, 0.000, 23:07:16.556, 1574395636556
35, 13045.57, -6130.14, -21498.69, -18830.67, -23960.82, -21246.52, -22692.14, -15637.57, 0.000, 0.000, 0.000, 23:07:16.562, 1574395636562
36, 13063.43, -6083.85, -21665.48, -20782.07, -24022.11, -21540.87, -22686.77, -15974.63, 0.000, 0.000, 0.000, 23:07:16.562, 1574395636562
37, 13074.09, -6044.72, -21673.93, -21860.83, -24016.57, -21617.27, -22662.08, -16100.70, 0.104, 0.854, 0.452, 23:07:16.569, 1574395636569
38, 13058.56, -6085.26, -21517.11, -20066.12, -23959.62, -21338.99, -22668.51, -15788.02, 0.000, 0.000, 0.000, 23:07:16.569, 1574395636569
39, 13042.20, -6134.01, -21491.25, -18749.98, -23963.68, -21228.48, -22699.02, -15620.29, 0.000, 0.000, 0.000, 23:07:16.579, 1574395636579
40, 13049.08, -6100.82, -21648.94, -20373.37, -24022.51, -21492.72, -22702.44, -15912.81, 0.000, 0.000, 0.000, 23:07:16.579, 1574395636579
41, 13066.56, -6045.10, -21700.59, -21917.34, -24033.36, -21645.56, -22677.16, -16121.31, 0.000, 0.000, 0.000, 23:07:16.585, 1574395636585
42, 13063.66, -6069.79, -21546.88, -20494.92, -23977.32, -21399.72, -22671.78, -15854.92, 0.000, 0.000, 0.000, 23:07:16.585, 1574395636585
43, 13046.51, -6125.61, -21472.61, -18755.19, -23956.60, -21214.91, -22695.33, -15606.66, 0.000, 0.000, 0.000, 23:07:16.592, 1574395636592
44, 13047.36, -6108.60, -21616.39, -19951.55, -24016.63, -21444.67, -22710.38, -15846.22, 0.000, 0.000, 0.000, 23:07:16.592, 1574395636592
45, 13083.59, -6032.00, -21690.76, -21836.25, -24029.06, -21642.32, -22670.52, -16108.23, 0.000, 0.000, 0.000, 23:07:16.599, 1574395636599
46, 13069.76, -6049.54, -21577.26, -20889.98, -23987.49, -21455.35, -22666.28, -15915.83, 0.000, 0.000, 0.000, 23:07:16.607, 1574395636607
47, 13046.02, -6114.54, -21473.03, -18876.27, -23962.68, -21223.49, -22695.38, -15618.64, 0.100, 0.868, 0.464, 23:07:16.607, 1574395636607
48, 13057.35, -6105.69, -21574.89, -19557.15, -24002.17, -21386.95, -22703.72, -15773.54, 0.000, 0.000, 0.000, 23:07:16.614, 1574395636614
49, 13069.71, -6048.02, -21715.70, -21668.16, -24046.65, -21653.12, -22689.30, -16105.01, 0.000, 0.000, 0.000, 23:07:16.614, 1574395636614
50, 13070.81, -6045.48, -21623.23, -21274.84, -24009.01, -21524.55, -22673.03, -15990.42, 0.000, 0.000, 0.000, 23:07:16.622, 1574395636622
51, 13048.86, -6106.30, -21472.67, -19111.72, -23958.21, -21246.03, -22687.22, -15648.50, 0.000, 0.000, 0.000, 23:07:16.622, 1574395636622
52, 13040.30, -6128.20, -21556.11, -19235.60, -23999.34, -21345.71, -22716.23, -15727.40, 0.000, 0.000, 0.000, 23:07:16.630, 1574395636630
53, 13053.15, -6077.91, -21711.63, -21416.90, -24058.57, -21641.29, -22709.91, -16085.41, 0.000, 0.000, 0.000, 23:07:16.630, 1574395636630
54, 13073.69, -6038.82, -21632.89, -21569.30, -24011.25, -21564.89, -22667.57, -16041.85, 0.000, 0.000, 0.000, 23:07:16.637, 1574395636637
55, 13054.51, -6096.24, -21481.97, -19434.33, -23957.36, -21271.80, -22681.68, -15691.13, 0.000, 0.000, 0.000, 23:07:16.637, 1574395636637
56, 13043.99, -6127.44, -21521.02, -18975.63, -23981.57, -21294.69, -22711.41, -15673.15, 0.000, 0.000, 0.000, 23:07:16.645, 1574395636645
57, 13069.71, -6068.92, -21678.11, -21050.07, -24038.00, -21589.79, -22703.81, -16024.59, 0.000, 0.000, 0.000, 23:07:16.645, 1574395636645
58, 13074.85, -6036.85, -21664.25, -21798.07, -24031.32, -21614.43, -22684.96, -16094.71, 0.094, 0.872, 0.470, 23:07:16.654, 1574395636654
59, 13054.49, -6088.88, -21507.74, -19832.86, -23976.65, -21327.10, -22698.11, -15760.80, 0.000, 0.000, 0.000, 23:07:16.654, 1574395636654
60, 13053.37, -6118.88, -21490.73, -18806.24, -23966.70, -21252.84, -22716.41, -15636.97, 0.000, 0.000, 0.000, 23:07:16.661, 1574395636661
61, 13075.19, -6071.61, -21649.88, -20634.68, -24022.34, -21535.17, -22715.96, -15956.87, 0.000, 0.000, 0.000, 23:07:16.661, 1574395636661
62, 13090.72, -6015.44, -21678.76, -21900.51, -24026.76, -21640.33, -22692.99, -16116.14, 0.000, 0.000, 0.000, 23:07:16.667, 1574395636667
63, 13071.21, -6062.22, -21525.51, -20240.78, -23977.77, -21376.49, -22701.15, -15824.19, 0.000, 0.000, 0.000, 23:07:16.674, 1574395636674
64, 13054.51, -6117.14, -21469.77, -18742.18, -23960.60, -21229.13, -22727.57, -15622.73, 0.000, 0.000, 0.000, 23:07:16.674, 1574395636674
65, 13070.43, -6079.29, -21611.54, -20210.38, -24011.32, -21471.91, -22730.76, -15892.22, 0.000, 0.000, 0.000, 23:07:16.682, 1574395636682
66, 13091.66, -6022.63, -21678.96, -21899.54, -24030.67, -21645.70, -22706.00, -16123.18, 0.000, 0.000, 0.000, 23:07:16.682, 1574395636682
67, 13082.90, -6047.76, -21546.61, -20655.00, -23977.27, -21418.36, -22701.68, -15881.41, 0.000, 0.000, 0.000, 23:07:16.695, 1574395636695
68, 13065.73, -6105.02, -21456.67, -18795.67, -23947.35, -21209.88, -22725.22, -15608.36, 0.098, 0.878, 0.468, 23:07:16.695, 1574395636695
69, 13073.29, -6085.40, -21582.64, -19793.05, -23994.73, -21406.38, -22732.55, -15811.18, 0.000, 0.000, 0.000, 23:07:16.696, 1574395636696
70, 13095.46, -6019.59, -21689.69, -21783.50, -24025.55, -21637.92, -22706.00, -16101.03, 0.000, 0.000, 0.000, 23:07:16.696, 1574395636696
71, 13091.17, -6028.44, -21578.51, -21047.79, -23988.61, -21473.01, -22700.19, -15939.92, 0.000, 0.000, 0.000, 23:07:16.704, 1574395636704
72, 13066.63, -6095.41, -21460.96, -18967.27, -23957.09, -21225.04, -22731.90, -15629.66, 0.000, 0.000, 0.000, 23:07:16.704, 1574395636704
73, 13076.73, -6088.91, -21545.56, -19415.33, -23986.64, -21349.76, -22738.25, -15744.03, 0.000, 0.000, 0.000, 23:07:16.714, 1574395636714
74, 13103.78, -6021.54, -21665.63, -21557.12, -24025.29, -21614.87, -22712.88, -16073.18, 0.000, 0.000, 0.000, 23:07:16.714, 1574395636714
75, 13104.11, -6011.19, -21580.81, -21377.12, -23987.00, -21512.82, -22693.17, -15992.61, 0.000, 0.000, 0.000, 23:07:16.720, 1574395636720
76, 13077.25, -6078.71, -21452.15, -19218.50, -23948.20, -21235.19, -22720.41, -15656.86, 0.000, 0.000, 0.000, 23:07:16.720, 1574395636720
77, 13063.19, -6106.32, -21530.34, -19125.11, -23990.86, -21308.01, -22754.57, -15703.35, 0.000, 0.000, 0.000, 23:07:16.726, 1574395636726
78, 13088.80, -6043.35, -21671.69, -21268.71, -24037.82, -21594.96, -22731.21, -16041.22, 0.098, 0.880, 0.468, 23:07:16.734, 1574395636734
79, 13100.07, -6009.98, -21631.03, -21663.09, -24010.89, -21571.22, -22702.64, -16045.56, 0.000, 0.000, 0.000, 23:07:16.734, 1574395636734
80, 13070.38, -6072.43, -21489.86, -19586.30, -23968.27, -21287.38, -22726.78, -15713.19, 0.000, 0.000, 0.000, 23:07:16.746, 1574395636746
81, 13072.55, -6101.91, -21502.94, -18898.78, -23977.39, -21259.41, -22749.47, -15653.53, 0.000, 0.000, 0.000, 23:07:16.746, 1574395636746
82, 13103.02, -6043.89, -21663.44, -20890.52, -24030.58, -21552.06, -22738.59, -15989.81, 0.000, 0.000, 0.000, 23:07:16.750, 1574395636750
83, 13110.42, -6005.73, -21667.80, -21837.54, -24024.06, -21609.62, -22709.93, -16089.99, 0.000, 0.000, 0.000, 23:07:16.750, 1574395636750
84, 13087.46, -6056.32, -21517.60, -19972.76, -23969.81, -21323.52, -22715.76, -15766.81, 0.000, 0.000, 0.000, 23:07:16.757, 1574395636757
85, 13067.95, -6102.65, -21499.90, -18782.46, -23976.65, -21234.69, -22750.45, -15627.31, 0.000, 0.000, 0.000, 23:07:16.757, 1574395636757
86, 13088.87, -6058.64, -21639.15, -20471.07, -24025.71, -21495.43, -22740.64, -15921.17, 0.000, 0.000, 0.000, 23:07:16.765, 1574395636765
87, 13106.30, -6002.47, -21687.70, -21904.73, -24036.55, -21629.45, -22716.95, -16112.19, 0.000, 0.000, 0.000, 23:07:16.765, 1574395636765
88, 13094.43, -6036.63, -21539.10, -20396.73, -23982.73, -21377.48, -22714.98, -15833.84, 0.098, 0.886, 0.472, 23:07:16.771, 1574395636771
89, 13075.59, -6098.90, -21475.71, -18760.80, -23972.18, -21215.09, -22747.12, -15610.86, 0.000, 0.000, 0.000, 23:07:16.771, 1574395636771
90, 13067.70, -6082.56, -21629.49, -20066.32, -24044.46, -21459.30, -22770.08, -15872.78, 0.000, 0.000, 0.000, 23:07:16.778, 1574395636778
91, 13086.57, -6018.23, -21711.84, -21883.07, -24065.23, -21653.45, -22738.67, -16126.65, 0.000, 0.000, 0.000, 23:07:16.779, 1574395636779
92, 13092.65, -6025.78, -21577.10, -20824.99, -24005.93, -21448.80, -22724.75, -15909.66, 0.000, 0.000, 0.000, 23:07:16.786, 1574395636786
93, 13073.62, -6085.87, -21474.64, -18867.51, -23972.89, -21217.48, -22746.07, -15619.09, 0.000, 0.000, 0.000, 23:07:16.794, 1574395636794
94, 13076.24, -6080.21, -21591.56, -19665.40, -24025.58, -21389.70, -22760.36, -15793.05, 0.000, 0.000, 0.000, 23:07:16.794, 1574395636794
95, 13093.34, -6019.73, -21712.64, -21731.75, -24073.10, -21646.75, -22743.48, -16108.86, 0.000, 0.000, 0.000, 23:07:16.801, 1574395636801
96, 13098.86, -6014.65, -21605.78, -21204.56, -24026.94, -21498.73, -22723.83, -15971.35, 0.000, 0.000, 0.000, 23:07:16.801, 1574395636801
97, 13081.13, -6075.85, -21481.77, -19077.46, -23991.69, -21233.69, -22750.25, -15646.53, 0.000, 0.000, 0.000, 23:07:16.809, 1574395636809
98, 13090.12, -6075.36, -21562.82, -19320.67, -24022.58, -21340.19, -22770.06, -15735.00, 0.102, 0.886, 0.470, 23:07:16.809, 1574395636809
99, 13110.95, -6012.22, -21702.96, -21483.02, -24072.38, -21631.32, -22756.73, -16080.49, 0.000, 0.000, 0.000, 23:07:16.817, 1574395636817
100, 13102.26, -6007.46, -21638.88, -21517.98, -24042.63, -21556.76, -22731.68, -16029.91, 0.000, 0.000, 0.000, 23:07:16.817, 1574395636817
101, 13084.69, -6071.07, -21487.67, -19374.89, -23992.12, -21264.49, -22744.96, -15681.98, 0.000, 0.000, 0.000, 23:07:16.823, 1574395636823
102, 13089.47, -6085.51, -21540.67, -19042.99, -24017.46, -21295.98, -22768.04, -15680.24, 0.000, 0.000, 0.000, 23:07:16.824, 1574395636824
103, 13103.24, -6031.84, -21700.97, -21142.02, -24073.39, -21594.38, -22758.19, -16028.73, 0.000, 0.000, 0.000, 23:07:16.832, 1574395636832
104, 13091.77, -6017.29, -21687.70, -21769.97, -24066.75, -21613.04, -22744.40, -16088.09, 0.000, 0.000, 0.000, 23:07:16.832, 1574395636832
105, 13080.98, -6062.78, -21524.88, -19756.64, -24001.57, -21312.05, -22742.54, -15738.82, 0.000, 0.000, 0.000, 23:07:16.841, 1574395636841
106, 13071.81, -6101.09, -21533.54, -18873.86, -24011.54, -21270.14, -22772.09, -15652.08, 0.000, 0.000, 0.000, 23:07:16.841, 1574395636841
107, 13088.15, -6053.99, -21691.88, -20772.15, -24071.40, -21564.20, -22771.49, -15982.52, 0.000, 0.000, 0.000, 23:07:16.847, 1574395636847
108, 13105.52, -6005.60, -21705.38, -21911.55, -24073.10, -21648.89, -22745.92, -16118.74, 0.100, 0.882, 0.468, 23:07:16.853, 1574395636853
109, 13088.51, -6043.84, -21554.68, -20177.81, -24024.68, -21378.46, -22755.73, -15818.37, 0.000, 0.000, 0.000, 23:07:16.853, 1574395636853
110, 13068.19, -6100.37, -21522.70, -18802.38, -24025.40, -21260.67, -22789.86, -15646.69, 0.000, 0.000, 0.000, 23:07:16.861, 1574395636861
111, 13069.98, -6082.62, -21683.27, -20366.10, -24091.65, -21531.66, -22799.81, -15938.38, 0.000, 0.000, 0.000, 23:07:16.861, 1574395636861
112, 13094.93, -6020.69, -21736.80, -21957.32, -24095.16, -21682.29, -22761.16, -16147.91, 0.000, 0.000, 0.000, 23:07:16.869, 1574395636869
113, 13090.37, -6038.66, -21590.94, -20609.36, -24038.25, -21434.52, -22745.00, -15880.51, 0.000, 0.000, 0.000, 23:07:16.869, 1574395636869
114, 13081.04, -6090.43, -21498.31, -18828.64, -24009.53, -21234.25, -22764.65, -15621.39, 0.000, 0.000, 0.000, 23:07:16.876, 1574395636876
115, 13091.62, -6074.42, -21625.11, -19936.77, -24062.97, -21447.21, -22776.20, -15845.69, 0.000, 0.000, 0.000, 23:07:16.877, 1574395636877
116, 13107.46, -6010.79, -21728.71, -21869.35, -24099.56, -21673.93, -22758.43, -16135.52, 0.000, 0.000, 0.000, 23:07:16.886, 1574395636886
117, 13103.20, -6019.01, -21613.55, -21011.78, -24047.71, -21488.34, -22744.42, -15947.46, 0.000, 0.000, 0.000, 23:07:16.886, 1574395636886
118, 13079.70, -6085.28, -21504.05, -18964.94, -24012.52, -21247.14, -22767.64, -15637.84, 0.098, 0.886, 0.472, 23:07:16.892, 1574395636892
119, 13078.92, -6087.88, -21611.70, -19554.29, -24059.84, -21402.89, -22785.86, -15784.73, 0.000, 0.000, 0.000, 23:07:16.892, 1574395636892
120, 13102.77, -6023.37, -21737.83, -21672.99, -24099.52, -21666.46, -22761.72, -16112.34, 0.000, 0.000, 0.000, 23:07:16.899, 1574395636899
121, 13105.56, -6010.70, -21658.39, -21359.35, -24065.36, -21545.72, -22742.41, -16007.36, 0.000, 0.000, 0.000, 23:07:16.899, 1574395636899
122, 13079.21, -6075.92, -21526.38, -19209.63, -24021.22, -21267.51, -22762.23, -15669.38, 0.000, 0.000, 0.000, 23:07:16.906, 1574395636906
123, 13078.90, -6090.36, -21590.98, -19234.01, -24046.21, -21345.94, -22782.48, -15728.16, 0.000, 0.000, 0.000, 23:07:16.906, 1574395636906
124, 13096.56, -6033.99, -21746.48, -21392.23, -24104.46, -21645.23, -22775.40, -16085.39, 0.000, 0.000, 0.000, 23:07:16.914, 1574395636914
125, 13117.05, -5997.73, -21678.49, -21644.94, -24072.78, -21594.15, -22744.75, -16065.85, 0.000, 0.000, 0.000, 23:07:16.921, 1574395636921
126, 13103.04, -6052.99, -21525.71, -19531.33, -24020.88, -21299.58, -22757.12, -15719.62, 0.000, 0.000, 0.000, 23:07:16.922, 1574395636922
127, 13088.20, -6092.06, -21566.95, -18990.35, -24045.42, -21311.25, -22788.72, -15691.28, 0.000, 0.000, 0.000, 23:07:16.929, 1574395636929
128, 13103.67, -6045.92, -21721.92, -21025.08, -24104.90, -21604.90, -22781.21, -16035.74, 0.000, 0.000, 0.000, 23:07:16.929, 1574395636929
129, 13102.17, -6019.77, -21735.71, -21872.88, -24113.51, -21665.03, -22770.59, -16139.57, 0.102, 0.880, 0.470, 23:07:16.936, 1574395636936
130, 13091.10, -6056.47, -21569.83, -19952.55, -24044.42, -21372.71, -22768.07, -15804.63, 0.000, 0.000, 0.000, 23:07:16.936, 1574395636936
131, 13089.87, -6089.67, -21539.35, -18845.04, -24032.51, -21284.83, -22782.13, -15662.49, 0.000, 0.000, 0.000, 23:07:16.944, 1574395636944
132, 13104.72, -6051.04, -21700.84, -20630.35, -24091.65, -21570.48, -22781.97, -15980.20, 0.000, 0.000, 0.000, 23:07:16.944, 1574395636944
133, 13121.84, -6003.77, -21740.96, -21964.25, -24097.91, -21685.97, -22754.21, -16146.85, 0.000, 0.000, 0.000, 23:07:16.952, 1574395636952
134, 13107.82, -6037.83, -21587.36, -20357.90, -24041.47, -21413.69, -22752.85, -15850.31, 0.000, 0.000, 0.000, 23:07:16.952, 1574395636952
135, 13096.80, -6086.20, -21523.86, -18809.19, -24028.88, -21261.69, -22782.62, -15641.37, 0.000, 0.000, 0.000, 23:07:16.959, 1574395636959
136, 13113.48, -6052.81, -21659.73, -20199.63, -24080.76, -21493.88, -22778.86, -15893.07, 0.000, 0.000, 0.000, 23:07:16.959, 1574395636959
137, 13121.70, -6002.11, -21746.21, -21946.98, -24108.57, -21684.12, -22758.05, -16144.75, 0.000, 0.000, 0.000, 23:07:16.967, 1574395636967
138, 13115.94, -6019.73, -21618.21, -20782.45, -24061.61, -21466.41, -22752.80, -15916.70, 0.000, 0.000, 0.000, 23:07:16.967, 1574395636967
139, 13095.98, -6079.76, -21524.86, -18884.81, -24037.42, -21254.56, -22781.70, -15641.39, 0.104, 0.880, 0.472, 23:07:16.974, 1574395636974
140, 13094.63, -6069.93, -21654.50, -19801.16, -24087.54, -21449.22, -22799.61, -15841.22, 0.000, 0.000, 0.000, 23:07:16.981, 1574395636981
141, 13118.48, -6005.67, -21765.93, -21820.42, -24118.96, -21689.26, -22776.90, -16145.25, 0.000, 0.000, 0.000, 23:07:16.981, 1574395636981
142, 13114.95, -6008.89, -21659.67, -21172.55, -24076.00, -21539.30, -22765.54, -15997.43, 0.000, 0.000, 0.000, 23:07:16.988, 1574395636988
143, 13091.17, -6078.71, -21544.67, -19074.96, -24046.63, -21286.08, -22796.12, -15681.51, 0.000, 0.000, 0.000, 23:07:16.988, 1574395636988
144, 13097.43, -6082.60, -21634.72, -19445.55, -24085.28, -21404.07, -22811.09, -15785.29, 0.000, 0.000, 0.000, 23:07:16.996, 1574395636996
145, 13112.52, -6021.38, -21782.45, -21599.36, -24136.91, -21681.91, -22795.78, -16124.35, 0.000, 0.000, 0.000, 23:07:16.996, 1574395636996
146, 13102.77, -6021.09, -21722.43, -21520.95, -24122.14, -21608.57, -22791.20, -16073.07, 0.000, 0.000, 0.000, 23:07:17.004, 1574395637004
147, 13086.86, -6076.75, -21571.53, -19365.30, -24067.93, -21316.52, -22803.09, -15725.03, 0.000, 0.000, 0.000, 23:07:17.004, 1574395637004
148, 13092.38, -6084.55, -21615.05, -19148.38, -24076.45, -21356.46, -22811.50, -15729.95, 0.000, 0.000, 0.000, 23:07:17.010, 1574395637010
149, 13118.69, -6015.66, -21761.93, -21264.20, -24118.94, -21644.62, -22789.12, -16070.05, 0.106, 0.882, 0.472, 23:07:17.011, 1574395637011
150, 13131.94, -5982.27, -21729.65, -21754.35, -24102.85, -21630.39, -22766.99, -16100.27, 0.000, 0.000, 0.000, 23:07:17.018, 1574395637018
151, 13112.00, -6036.58, -21575.13, -19700.07, -24054.30, -21332.33, -22780.09, -15757.96, 0.000, 0.000, 0.000, 23:07:17.019, 1574395637019
152, 13100.22, -6075.85, -21589.57, -18937.52, -24073.23, -21303.36, -22807.12, -15687.15, 0.000, 0.000, 0.000, 23:07:17.027, 1574395637027
153, 13119.89, -6025.96, -21742.79, -20887.39, -24130.47, -21592.54, -22796.52, -16016.28, 0.000, 0.000, 0.000, 23:07:17.027, 1574395637027
154, 13131.49, -5982.42, -21751.46, -21922.05, -24124.10, -21661.41, -22768.63, -16132.30, 0.000, 0.000, 0.000, 23:07:17.033, 1574395637033
155, 13108.65, -6034.88, -21600.55, -20124.19, -24069.90, -21392.12, -22781.48, -15826.80, 0.000, 0.000, 0.000, 23:07:17.041, 1574395637041
156, 13094.48, -6085.51, -21565.81, -18849.54, -24067.71, -21292.99, -22814.56, -15673.02, 0.000, 0.000, 0.000, 23:07:17.041, 1574395637041
157, 13115.20, -6044.22, -21711.21, -20483.50, -24118.74, -21553.05, -22809.44, -15961.67, 0.000, 0.000, 0.000, 23:07:17.049, 1574395637049
158, 13132.03, -5986.96, -21771.09, -21987.52, -24132.87, -21699.01, -22783.89, -16163.17, 0.000, 0.000, 0.000, 23:07:17.050, 1574395637050
159, 13111.40, -6025.00, -21637.27, -20554.87, -24097.82, -21466.88, -22795.96, -15909.55, 0.102, 0.878, 0.472, 23:07:17.057, 1574395637057
160, 13078.07, -6099.34, -21582.38, -18867.15, -24100.57, -21301.57, -22837.54, -15680.89, 0.000, 0.000, 0.000, 23:07:17.057, 1574395637057
161, 13093.16, -6072.34, -21719.46, -20084.14, -24156.13, -21520.93, -22839.71, -15912.85, 0.000, 0.000, 0.000, 23:07:17.063, 1574395637063
162, 13132.72, -5984.95, -21791.83, -21928.49, -24159.78, -21708.13, -22793.68, -16165.27, 0.000, 0.000, 0.000, 23:07:17.063, 1574395637063
163, 13135.07, -5988.21, -21655.73, -20940.70, -24095.11, -21500.01, -22772.78, -15952.48, 0.000, 0.000, 0.000, 23:07:17.071, 1574395637071
164, 13106.12, -6066.35, -21561.30, -18958.73, -24075.40, -21283.02, -22810.54, -15666.31, 0.000, 0.000, 0.000, 23:07:17.071, 1574395637071
165, 13113.23, -6057.68, -21678.53, -19673.36, -24120.71, -21450.79, -22825.40, -15830.76, 0.000, 0.000, 0.000, 23:07:17.079, 1574395637079
166, 13133.57, -5991.99, -21796.53, -21762.80, -24158.64, -21708.91, -22802.09, -16150.97, 0.000, 0.000, 0.000, 23:07:17.079, 1574395637079
167, 13132.36, -5987.58, -21699.95, -21321.98, -24115.77, -21574.35, -22783.22, -16029.62, 0.000, 0.000, 0.000, 23:07:17.086, 1574395637086
168, 13103.51, -6056.74, -21579.29, -19184.26, -24078.28, -21304.77, -22808.66, -15702.26, 0.000, 0.000, 0.000, 23:07:17.086, 1574395637086
169, 13099.08, -6066.87, -21657.97, -19341.70, -24117.55, -21405.57, -22828.44, -15778.12, 0.098, 0.878, 0.472, 23:07:17.093, 1574395637093
170, 13126.98, -6002.94, -21797.78, -21508.32, -24165.12, -21695.27, -22808.03, -16123.07, 0.000, 0.000, 0.000, 23:07:17.101, 1574395637101
171, 13135.23, -5979.40, -21736.11, -21631.53, -24127.61, -21622.18, -22774.71, -16078.01, 0.000, 0.000, 0.000, 23:07:17.101, 1574395637101
172, 13105.03, -6046.79, -21585.35, -19500.44, -24086.22, -21335.88, -22799.49, -15739.00, 0.000, 0.000, 0.000, 23:07:17.109, 1574395637109
173, 13104.47, -6069.37, -21616.55, -19075.29, -24101.77, -21354.36, -22819.16, -15721.34, 0.000, 0.000, 0.000, 23:07:17.109, 1574395637109
174, 13126.71, -6014.90, -21772.68, -21148.30, -24156.98, -21651.40, -22806.06, -16062.30, 0.000, 0.000, 0.000, 23:07:17.117, 1574395637117
175, 13130.78, -5983.41, -21759.36, -21863.18, -24149.07, -21674.64, -22785.08, -16127.70, 0.000, 0.000, 0.000, 23:07:17.117, 1574395637117
176, 13099.64, -6041.68, -21611.48, -19902.24, -24096.79, -21396.47, -22803.38, -15808.32, 0.000, 0.000, 0.000, 23:07:17.124, 1574395637124
177, 13088.76, -6081.84, -21611.99, -18929.20, -24104.10, -21339.12, -22834.12, -15708.11, 0.000, 0.000, 0.000, 23:07:17.124, 1574395637124
178, 13124.14, -6020.80, -21755.73, -20754.55, -24148.96, -21604.28, -22812.88, -16010.98, 0.000, 0.000, 0.000, 23:07:17.132, 1574395637132
179, 13142.40, -5965.86, -21779.12, -21980.01, -24147.30, -21699.10, -22781.48, -16158.21, 0.096, 0.882, 0.476, 23:07:17.132, 1574395637132
180, 13119.67, -6011.66, -21634.81, -20304.08, -24100.86, -21439.28, -22791.96, -15866.32, 0.000, 0.000, 0.000, 23:07:17.139, 1574395637139
181, 13106.91, -6063.67, -21588.68, -18849.07, -24097.01, -21303.13, -22820.93, -15673.18, 0.000, 0.000, 0.000, 23:07:17.139, 1574395637139
182, 13125.86, -6021.65, -21734.77, -20333.11, -24153.72, -21550.48, -22820.88, -15944.17, 0.000, 0.000, 0.000, 23:07:17.146, 1574395637146
183, 13137.66, -5964.76, -21811.41, -21994.72, -24176.92, -21723.53, -22797.42, -16177.75, 0.000, 0.000, 0.000, 23:07:17.146, 1574395637146
184, 13119.11, -6001.26, -21686.85, -20738.37, -24140.26, -21503.96, -22801.73, -15942.52, 0.000, 0.000, 0.000, 23:07:17.153, 1574395637153
185, 13109.43, -6050.37, -21588.65, -18895.29, -24104.17, -21290.57, -22818.92, -15668.55, 0.000, 0.000, 0.000, 23:07:17.153, 1574395637153
186, 13117.34, -6032.58, -21718.32, -19921.28, -24147.84, -21495.83, -22828.84, -15875.86, 0.000, 0.000, 0.000, 23:07:17.161, 1574395637161
187, 13127.42, -5980.25, -21837.72, -21899.08, -24189.64, -21738.46, -22817.64, -16183.29, 0.000, 0.000, 0.000, 23:07:17.168, 1574395637168
188, 13125.44, -5986.71, -21725.07, -21131.32, -24143.10, -21562.44, -22801.66, -16012.52, 0.000, 0.000, 0.000, 23:07:17.168, 1574395637168
189, 13115.13, -6042.66, -21595.72, -19050.97, -24094.78, -21301.86, -22812.81, -15685.85, 0.098, 0.880, 0.478, 23:07:17.176, 1574395637176
190, 13112.45, -6048.81, -21700.17, -19563.70, -24142.41, -21448.42, -22833.09, -15822.38, 0.000, 0.000, 0.000, 23:07:17.176, 1574395637176
191, 13132.07, -5984.93, -21830.63, -21704.86, -24186.31, -21725.83, -22812.90, -16156.06, 0.000, 0.000, 0.000, 23:07:17.183, 1574395637183
192, 13123.94, -5980.14, -21764.59, -21497.68, -24156.56, -21629.13, -22803.72, -16079.87, 0.000, 0.000, 0.000, 23:07:17.184, 1574395637184
193, 13104.63, -6044.87, -21620.37, -19341.86, -24112.23, -21348.55, -22824.30, -15740.14, 0.000, 0.000, 0.000, 23:07:17.191, 1574395637191
194, 13103.08, -6059.27, -21677.86, -19269.44, -24140.53, -21416.61, -22844.06, -15781.31, 0.000, 0.000, 0.000, 23:07:17.191, 1574395637191
195, 13126.80, -5999.10, -21827.46, -21414.96, -24190.31, -21706.61, -22825.96, -16125.35, 0.000, 0.000, 0.000, 23:07:17.200, 1574395637200
196, 13139.79, -5970.24, -21773.93, -21767.25, -24165.48, -21672.63, -22799.76, -16127.43, 0.000, 0.000, 0.000, 23:07:17.200, 1574395637200
197, 13116.61, -6030.50, -21618.27, -19676.02, -24112.77, -21372.89, -22811.83, -15780.08, 0.000, 0.000, 0.000, 23:07:17.207, 1574395637207
198, 13098.86, -6070.00, -21648.18, -19035.13, -24138.05, -21365.41, -22841.69, -15728.01, 0.000, 0.000, 0.000, 23:07:17.207, 1574395637207
199, 13108.81, -6030.81, -21820.40, -21056.42, -24210.94, -21675.09, -22846.75, -16078.15, 0.000, 0.000, 0.000, 23:07:17.213, 1574395637213
200, 13133.13, -5979.09, -21806.52, -21956.97, -24188.70, -21720.64, -22808.52, -16166.43, 0.096, 0.880, 0.470, 23:07:17.214, 1574395637214
201, 13118.08, -6018.99, -21648.04, -20069.41, -24129.76, -21436.91, -22813.40, -15842.58, 0.000, 0.000, 0.000, 23:07:17.219, 1574395637219
202, 13097.61, -6066.24, -21643.21, -18909.04, -24143.59, -21353.89, -22848.89, -15708.72, 0.000, 0.000, 0.000, 23:07:17.228, 1574395637228
203, 13118.04, -6024.91, -21794.43, -20628.02, -24205.62, -21620.48, -22841.94, -16007.85, 0.000, 0.000, 0.000, 23:07:17.228, 1574395637228
204, 13143.90, -5962.42, -21820.93, -22020.47, -24197.84, -21733.32, -22799.02, -16176.96, 0.000, 0.000, 0.000, 23:07:17.237, 1574395637237
205, 13138.15, -5989.04, -21671.29, -20482.29, -24129.29, -21473.39, -22793.48, -15892.47, 0.000, 0.000, 0.000, 23:07:17.237, 1574395637237
206, 13117.90, -6053.28, -21619.93, -18872.22, -24122.56, -21318.00, -22828.10, -15675.64, 0.000, 0.000, 0.000, 23:07:17.243, 1574395637243
207, 13117.46, -6034.79, -21768.07, -20198.02, -24183.60, -21555.60, -22839.44, -15934.47, 0.000, 0.000, 0.000, 23:07:17.243, 1574395637243
208, 13141.19, -5967.22, -21845.01, -21988.13, -24202.33, -21740.92, -22807.99, -16185.81, 0.000, 0.000, 0.000, 23:07:17.251, 1574395637251
209, 13125.03, -5993.11, -21724.60, -20909.52, -24155.02, -21540.55, -22804.95, -15972.71, 0.000, 0.000, 0.000, 23:07:17.251, 1574395637251
210, 13096.42, -6061.28, -21632.15, -18976.94, -24129.42, -21331.48, -22838.79, -15694.61, 0.094, 0.876, 0.472, 23:07:17.258, 1574395637258
211, 13103.75, -6049.66, -21743.33, -19813.61, -24174.28, -21511.12, -22845.58, -15873.45, 0.000, 0.000, 0.000, 23:07:17.259, 1574395637259
212, 13129.71, -5981.86, -21855.85, -21867.76, -24211.03, -21756.88, -22819.43, -16177.66, 0.000, 0.000, 0.000, 23:07:17.267, 1574395637267
213, 13114.33, -5999.39, -21771.85, -21323.03, -24189.26, -21630.34, -22824.68, -16055.73, 0.000, 0.000, 0.000, 23:07:17.267, 1574395637267
214, 13088.80, -6068.86, -21644.82, -19207.61, -24153.83, -21363.10, -22848.82, -15730.40, 0.000, 0.000, 0.000, 23:07:17.273, 1574395637273
215, 13108.87, -6053.77, -21706.00, -19468.32, -24166.17, -21448.60, -22842.30, -15800.38, 0.000, 0.000, 0.000, 23:07:17.273, 1574395637273
216, 13137.73, -5984.23, -21842.06, -21620.33, -24205.06, -21722.81, -22816.12, -16134.70, 0.000, 0.000, 0.000, 23:07:17.280, 1574395637280
217, 13128.92, -5983.58, -21787.47, -21632.46, -24185.30, -21656.74, -22806.40, -16094.69, 0.000, 0.000, 0.000, 23:07:17.289, 1574395637289
218, 13117.12, -6031.55, -21629.36, -19469.91, -24128.19, -21357.98, -22812.84, -15737.66, 0.000, 0.000, 0.000, 23:07:17.289, 1574395637289
219, 13105.74, -6059.16, -21682.18, -19183.03, -24157.36, -21404.86, -22840.96, -15747.00, 0.000, 0.000, 0.000, 23:07:17.296, 1574395637296
220, 13119.51, -6008.64, -21841.70, -21301.19, -24220.39, -21706.49, -22838.21, -16105.26, 0.090, 0.884, 0.474, 23:07:17.297, 1574395637297
221, 13130.22, -5974.29, -21813.25, -21878.91, -24204.10, -21707.41, -22813.13, -16148.91, 0.000, 0.000, 0.000, 23:07:17.303, 1574395637303
222, 13110.01, -6028.69, -21654.06, -19846.52, -24150.66, -21418.49, -22820.26, -15806.64, 0.000, 0.000, 0.000, 23:07:17.303, 1574395637303
223, 13096.11, -6067.45, -21667.76, -18990.11, -24163.96, -21378.91, -22850.50, -15723.25, 0.000, 0.000, 0.000, 23:07:17.311, 1574395637311
224, 13116.43, -6017.74, -21828.60, -20906.23, -24219.84, -21669.55, -22849.45, -16057.76, 0.000, 0.000, 0.000, 23:07:17.311, 1574395637311
225, 13137.42, -5965.52, -21840.16, -22007.68, -24210.83, -21743.37, -22815.50, -16185.12, 0.000, 0.000, 0.000, 23:07:17.319, 1574395637319
226, 13112.32, -6017.74, -21698.71, -20253.03, -24162.41, -21469.54, -22824.37, -15876.87, 0.000, 0.000, 0.000, 23:07:17.319, 1574395637319
227, 13092.40, -6066.64, -21661.90, -18896.99, -24160.36, -21349.65, -22852.69, -15702.10, 0.000, 0.000, 0.000, 23:07:17.325, 1574395637325
228, 13117.48, -6022.12, -21809.98, -20482.29, -24213.42, -21609.64, -22848.60, -15987.02, 0.000, 0.000, 0.000, 23:07:17.326, 1574395637326
229, 13133.77, -5969.44, -21864.19, -22046.26, -24225.33, -21761.86, -22818.43, -16198.91, 0.000, 0.000, 0.000, 23:07:17.334, 1574395637334
230, 13105.30, -6013.60, -21737.85, -20677.20, -24188.81, -21539.88, -22831.37, -15958.61, 0.094, 0.882, 0.476, 23:07:17.334, 1574395637334
231, 13083.71, -6078.36, -21669.90, -18931.30, -24179.58, -21360.13, -22864.74, -15716.23, 0.000, 0.000, 0.000, 23:07:17.341, 1574395637341
232, 13110.88, -6037.99, -21781.97, -20068.27, -24216.30, -21557.18, -22853.63, -15921.77, 0.000, 0.000, 0.000, 23:07:17.349, 1574395637349
233, 13139.72, -5966.08, -21870.82, -21975.41, -24233.87, -21766.40, -22822.40, -16196.27, 0.000, 0.000, 0.000, 23:07:17.350, 1574395637350
234, 13129.95, -5979.92, -21755.44, -21081.67, -24190.55, -21585.66, -22817.87, -16011.56, 0.000, 0.000, 0.000, 23:07:17.355, 1574395637355
235, 13103.80, -6050.08, -21649.83, -19059.71, -24158.81, -21353.18, -22848.78, -15712.05, 0.000, 0.000, 0.000, 23:07:17.355, 1574395637355
236, 13115.31, -6039.49, -21749.45, -19692.60, -24193.51, -21508.26, -22858.64, -15858.67, 0.000, 0.000, 0.000, 23:07:17.363, 1574395637363
237, 13134.87, -5980.37, -21879.88, -21806.18, -24234.34, -21772.16, -22837.42, -16185.39, 0.000, 0.000, 0.000, 23:07:17.363, 1574395637363
238, 13126.20, -5984.37, -21800.77, -21465.68, -24203.23, -21660.40, -22828.33, -16089.50, 0.000, 0.000, 0.000, 23:07:17.371, 1574395637371
239, 13102.59, -6047.29, -21655.44, -19313.72, -24159.96, -21387.51, -22849.56, -15754.49, 0.000, 0.000, 0.000, 23:07:17.371, 1574395637371
240, 13106.79, -6053.05, -21715.77, -19368.14, -24186.40, -21465.63, -22861.95, -15810.06, 0.098, 0.884, 0.474, 23:07:17.378, 1574395637378
241, 13128.83, -5993.44, -21857.55, -21516.06, -24235.12, -21746.95, -22840.96, -16148.44, 0.000, 0.000, 0.000, 23:07:17.378, 1574395637378
242, 13132.16, -5974.24, -21803.72, -21735.55, -24208.55, -21691.50, -22816.12, -16124.53, 0.000, 0.000, 0.000, 23:07:17.386, 1574395637386
243, 13117.25, -6026.81, -21654.59, -19616.09, -24159.73, -21390.78, -22830.25, -15775.57, 0.000, 0.000, 0.000, 23:07:17.386, 1574395637386
244, 13108.58, -6053.90, -21691.09, -19102.38, -24180.88, -21399.09, -22855.06, -15746.04, 0.000, 0.000, 0.000, 23:07:17.394, 1574395637394
245, 13121.08, -6002.18, -21861.03, -21161.45, -24247.30, -21701.64, -22853.65, -16098.13, 0.000, 0.000, 0.000, 23:07:17.394, 1574395637394
246, 13152.77, -5947.17, -21833.81, -21935.08, -24218.90, -21718.88, -22808.81, -16156.11, 0.000, 0.000, 0.000, 23:07:17.401, 1574395637401
247, 13136.43, -5994.51, -21673.17, -19986.35, -24158.75, -21433.47, -22816.19, -15823.69, 0.000, 0.000, 0.000, 23:07:17.401, 1574395637401
248, 13119.13, -6043.31, -21676.07, -18942.59, -24174.10, -21368.80, -22854.72, -15713.01, 0.000, 0.000, 0.000, 23:07:17.407, 1574395637407
249, 13124.52, -6008.17, -21839.58, -20751.83, -24242.05, -21655.96, -22858.26, -16034.81, 0.000, 0.000, 0.000, 23:07:17.416, 1574395637416
250, 13138.51, -5964.29, -21875.45, -22060.50, -24248.69, -21775.58, -22835.23, -16205.06, 0.096, 0.882, 0.470, 23:07:17.416, 1574395637416
251, 13125.57, -5995.88, -21724.64, -20434.37, -24190.64, -21515.97, -22839.15, -15915.69, 0.000, 0.000, 0.000, 23:07:17.423, 1574395637423
252, 13101.54, -6047.13, -21675.42, -18905.37, -24182.66, -21368.13, -22870.33, -15711.31, 0.000, 0.000, 0.000, 23:07:17.424, 1574395637424
253, 13117.08, -6013.71, -21818.54, -20326.83, -24237.83, -21608.32, -22868.94, -15974.05, 0.000, 0.000, 0.000, 23:07:17.429, 1574395637429
254, 13133.17, -5962.93, -21900.73, -22051.47, -24261.43, -21794.89, -22849.72, -16226.38, 0.000, 0.000, 0.000, 23:07:17.430, 1574395637430
255, 13129.84, -5982.82, -21761.23, -20852.59, -24205.96, -21572.36, -22843.17, -15991.53, 0.000, 0.000, 0.000, 23:07:17.438, 1574395637438
0, 13111.56, -6044.34, -21671.00, -18972.96, -24182.51, -21361.32, -22870.28, -15717.37, 0.000, 0.000, 0.000, 23:07:17.438, 1574395637438
1, 13111.04, -6041.25, -21797.89, -19944.60, -24248.04, -21569.77, -22890.64, -15927.79, 0.000, 0.000, 0.000, 23:07:17.446, 1574395637446
2, 13149.42, -5956.00, -21884.35, -21938.42, -24264.09, -21796.10, -22851.21, -16215.88, 0.000, 0.000, 0.000, 23:07:17.446, 1574395637446
3, 13145.24, -5963.53, -21780.48, -21244.06, -24213.93, -21633.56, -22839.32, -16056.62, 0.000, 0.000, 0.000, 23:07:17.453, 1574395637453
4, 13115.69, -6034.99, -21670.26, -19157.03, -24187.65, -21383.76, -22870.51, -15740.63, 0.094, 0.878, 0.472, 23:07:17.453, 1574395637453
5, 13114.17, -6035.95, -21765.66, -19574.09, -24231.57, -21515.70, -22887.83, -15859.68, 0.000, 0.000, 0.000, 23:07:17.461, 1574395637461
6, 13137.15, -5967.74, -21896.30, -21720.80, -24274.71, -21785.11, -22863.49, -16191.00, 0.000, 0.000, 0.000, 23:07:17.461, 1574395637461
7, 13141.24, -5959.94, -21822.92, -21591.47, -24245.81, -21694.54, -22845.87, -16117.71, 0.000, 0.000, 0.000, 23:07:17.468, 1574395637468
8, 13119.49, -6023.79, -21684.34, -19434.95, -24203.94, -21407.63, -22868.00, -15773.67, 0.000, 0.000, 0.000, 23:07:17.476, 1574395637476
9, 13126.20, -6028.27, -21731.82, -19266.91, -24220.82, -21449.09, -22876.90, -15786.23, 0.000, 0.000, 0.000, 23:07:17.476, 1574395637476
10, 13137.89, -5984.17, -21905.07, -21411.27, -24285.19, -21755.60, -22877.21, -16148.06, 0.000, 0.000, 0.000, 23:07:17.482, 1574395637482
11, 13135.61, -5964.63, -21887.34, -21873.10, -24277.66, -21750.21, -22867.60, -16183.60, 0.000, 0.000, 0.000, 23:07:17.483, 1574395637483
12, 13138.33, -5990.47, -21701.26, -19775.57, -24199.92, -21424.50, -22853.50, -15809.46, 0.000, 0.000, 0.000, 23:07:17.491, 1574395637491
13, 13126.40, -6028.00, -21718.36, -19042.59, -24211.86, -21405.33, -22876.83, -15742.78, 0.000, 0.000, 0.000, 23:07:17.491, 1574395637491
14, 13144.41, -5979.74, -21884.53, -21023.76, -24278.24, -21708.28, -22877.68, -16091.71, 0.000, 0.000, 0.000, 23:07:17.498, 1574395637498
15, 13159.03, -5935.48, -21887.32, -22017.05, -24274.24, -21767.49, -22851.53, -16199.94, 0.096, 0.880, 0.470, 23:07:17.499, 1574395637499
16, 13145.19, -5977.66, -21729.45, -20174.10, -24212.64, -21484.72, -22854.43, -15875.82, 0.000, 0.000, 0.000, 23:07:17.506, 1574395637506
17, 13129.37, -6028.04, -21703.70, -18931.05, -24211.21, -21394.55, -22885.35, -15726.82, 0.000, 0.000, 0.000, 23:07:17.506, 1574395637506
18, 13126.58, -6007.17, -21869.55, -20619.80, -24283.58, -21678.60, -22899.23, -16042.05, 0.000, 0.000, 0.000, 23:07:17.513, 1574395637513
19, 13157.38, -5940.85, -21907.14, -22087.03, -24281.75, -21806.45, -22858.59, -16228.35, 0.000, 0.000, 0.000, 23:07:17.513, 1574395637513
20, 13146.74, -5969.97, -21753.95, -20604.20, -24221.42, -21550.99, -22848.98, -15947.72, 0.000, 0.000, 0.000, 23:07:17.520, 1574395637520
21, 13124.14, -6024.51, -21688.48, -18928.28, -24206.07, -21378.24, -22876.81, -15710.50, 0.000, 0.000, 0.000, 23:07:17.521, 1574395637521
22, 13140.01, -5993.46, -21818.16, -20188.23, -24263.02, -21600.99, -22879.45, -15950.29, 0.000, 0.000, 0.000, 23:07:17.528, 1574395637528
23, 13161.47, -5933.52, -21899.30, -22035.56, -24287.20, -21799.14, -22853.54, -16218.47, 0.000, 0.000, 0.000, 23:07:17.537, 1574395637537
24, 13147.34, -5952.45, -21778.22, -21027.94, -24240.55, -21599.36, -22849.85, -16016.50, 0.000, 0.000, 0.000, 23:07:17.537, 1574395637537
25, 13104.74, -6034.70, -21694.09, -19061.86, -24229.38, -21386.08, -22894.53, -15738.53, 0.098, 0.882, 0.472, 23:07:17.543, 1574395637543
26, 13112.56, -6029.41, -21806.85, -19821.79, -24273.14, -21557.36, -22907.32, -15909.28, 0.000, 0.000, 0.000, 23:07:17.543, 1574395637543
27, 13152.06, -5948.11, -21908.49, -21885.84, -24293.48, -21791.50, -22872.61, -16212.39, 0.000, 0.000, 0.000, 23:07:17.551, 1574395637551
28, 13152.73, -5942.61, -21818.30, -21396.36, -24253.03, -21649.56, -22858.64, -16080.65, 0.000, 0.000, 0.000, 23:07:17.551, 1574395637551
29, 13125.37, -6009.15, -21693.84, -19255.20, -24212.79, -21385.99, -22884.92, -15753.08, 0.000, 0.000, 0.000, 23:07:17.558, 1574395637558
30, 13135.00, -6004.19, -21757.63, -19444.05, -24238.72, -21479.04, -22897.15, -15828.63, 0.000, 0.000, 0.000, 23:07:17.558, 1574395637558
31, 13158.83, -5940.09, -21895.16, -21605.06, -24285.77, -21762.15, -22879.71, -16169.81, 0.000, 0.000, 0.000, 23:07:17.565, 1574395637565
32, 13160.93, -5928.38, -21836.67, -21696.14, -24257.12, -21701.46, -22863.91, -16132.39, 0.000, 0.000, 0.000, 23:07:17.565, 1574395637565
33, 13141.46, -5983.92, -21679.78, -19550.24, -24197.35, -21404.41, -22878.91, -15778.25, 0.000, 0.000, 0.000, 23:07:17.573, 1574395637573
34, 13133.62, -6011.52, -21720.78, -19171.13, -24216.64, -21429.09, -22904.73, -15770.03, 0.000, 0.000, 0.000, 23:07:17.573, 1574395637573
35, 13152.91, -5955.82, -21873.77, -21267.73, -24271.49, -21721.18, -22895.47, -16118.16, 0.098, 0.882, 0.474, 23:07:17.580, 1574395637580
36, 13162.07, -5926.03, -21854.87, -21926.88, -24258.84, -21737.76, -22878.64, -16179.02, 0.000, 0.000, 0.000, 23:07:17.581, 1574395637581
37, 13128.43, -5988.10, -21708.75, -19941.94, -24213.76, -21462.39, -22903.92, -15854.67, 0.000, 0.000, 0.000, 23:07:17.587, 1574395637587
38, 13108.29, -6033.00, -21722.07, -19022.25, -24231.19, -21414.71, -22941.18, -15761.64, 0.000, 0.000, 0.000, 23:07:17.595, 1574395637595
39, 13152.35, -5961.25, -21852.76, -20872.39, -24260.87, -21675.20, -22911.34, -16057.89, 0.000, 0.000, 0.000, 23:07:17.595, 1574395637595
40, 13179.35, -5899.14, -21860.29, -22041.55, -24246.17, -21753.30, -22874.13, -16188.34, 0.000, 0.000, 0.000, 23:07:17.603, 1574395637603
41, 13154.31, -5947.82, -21721.89, -20337.83, -24204.68, -21492.39, -22891.47, -15895.22, 0.000, 0.000, 0.000, 23:07:17.603, 1574395637603
42, 13135.02, -6006.52, -21678.40, -18922.85, -24201.26, -21362.01, -22919.75, -15705.41, 0.000, 0.000, 0.000, 23:07:17.611, 1574395637611
43, 13153.69, -5967.67, -21817.34, -20445.95, -24252.40, -21610.81, -22916.77, -15978.03, 0.000, 0.000, 0.000, 23:07:17.611, 1574395637611
44, 13172.46, -5905.64, -21879.25, -22082.88, -24269.84, -21774.58, -22889.86, -16202.35, 0.000, 0.000, 0.000, 23:07:17.618, 1574395637618
45, 13157.78, -5934.08, -21741.88, -20773.20, -24221.11, -21543.88, -22888.74, -15954.29, 0.098, 0.882, 0.476, 23:07:17.618, 1574395637618
46, 13139.27, -5998.07, -21663.80, -18971.02, -24199.72, -21353.11, -22920.80, -15701.83, 0.000, 0.000, 0.000, 23:07:17.626, 1574395637626
47, 13145.57, -5979.31, -21794.83, -20044.24, -24250.01, -21555.13, -22929.98, -15917.62, 0.000, 0.000, 0.000, 23:07:17.626, 1574395637626
48, 13174.16, -5906.49, -21894.14, -21988.57, -24275.65, -21767.69, -22898.20, -16198.51, 0.000, 0.000, 0.000, 23:07:17.634, 1574395637634
49, 13169.18, -5916.37, -21779.67, -21167.32, -24232.49, -21594.51, -22890.40, -16022.65, 0.000, 0.000, 0.000, 23:07:17.634, 1574395637634
50, 13143.03, -5983.63, -21668.65, -19107.72, -24196.05, -21350.99, -22915.99, -15714.17, 0.000, 0.000, 0.000, 23:07:17.640, 1574395637640
51, 13143.38, -5982.94, -21772.88, -19659.21, -24239.06, -21496.39, -22932.46, -15852.62, 0.000, 0.000, 0.000, 23:07:17.640, 1574395637640
52, 13175.53, -5911.61, -21888.17, -21778.60, -24270.60, -21753.63, -22899.67, -16170.53, 0.000, 0.000, 0.000, 23:07:17.647, 1574395637647
53, 13175.10, -5902.07, -21809.42, -21509.06, -24232.80, -21643.78, -22883.25, -16072.47, 0.000, 0.000, 0.000, 23:07:17.647, 1574395637647
54, 13144.12, -5972.05, -21678.55, -19366.31, -24197.75, -21373.30, -22913.64, -15743.94, 0.000, 0.000, 0.000, 23:07:17.655, 1574395637655
55, 13138.11, -5981.91, -21740.45, -19348.05, -24226.94, -21447.15, -22934.39, -15795.55, 0.100, 0.880, 0.474, 23:07:17.663, 1574395637663
56, 13170.41, -5911.46, -21881.73, -21494.82, -24271.54, -21730.83, -22911.25, -16136.60, 0.000, 0.000, 0.000, 23:07:17.663, 1574395637663
57, 13173.18, -5897.42, -21842.66, -21801.89, -24254.30, -21699.77, -22893.53, -16136.15, 0.000, 0.000, 0.000, 23:07:17.670, 1574395637670
58, 13148.77, -5952.20, -21692.57, -19693.32, -24204.57, -21407.43, -22908.44, -15790.63, 0.000, 0.000, 0.000, 23:07:17.670, 1574395637670
59, 13147.03, -5980.25, -21713.49, -19097.67, -24214.96, -21399.27, -22926.68, -15739.25, 0.000, 0.000, 0.000, 23:07:17.678, 1574395637678
60, 13161.76, -5928.73, -21879.47, -21123.05, -24274.44, -21693.13, -22920.57, -16080.11, 0.000, 0.000, 0.000, 23:07:17.678, 1574395637678
61, 13175.59, -5885.50, -21873.51, -21984.62, -24263.47, -21731.51, -22894.31, -16165.88, 0.000, 0.000, 0.000, 23:07:17.686, 1574395637686
62, 13150.69, -5944.09, -21723.79, -20093.14, -24221.45, -21457.58, -22915.59, -15852.50, 0.000, 0.000, 0.000, 23:07:17.686, 1574395637686
63, 13117.17, -6008.31, -21723.84, -18992.10, -24246.70, -21396.52, -22960.25, -15735.76, 0.000, 0.000, 0.000, 23:07:17.693, 1574395637693
64, 13147.50, -5945.38, -21864.05, -20736.18, -24290.20, -21655.71, -22938.95, -16028.55, 0.000, 0.000, 0.000, 23:07:17.693, 1574395637693
65, 13180.73, -5879.58, -21884.86, -22083.23, -24276.25, -21760.14, -22894.09, -16185.97, 0.098, 0.882, 0.478, 23:07:17.701, 1574395637701
66, 13162.52, -5919.26, -21737.21, -20516.82, -24224.57, -21504.54, -22897.66, -15905.93, 0.000, 0.000, 0.000, 23:07:17.702, 1574395637702
67, 13140.95, -5982.98, -21685.46, -18945.49, -24218.99, -21357.90, -22934.10, -15701.29, 0.000, 0.000, 0.000, 23:07:17.709, 1574395637709
68, 13155.99, -5948.38, -21827.01, -20307.92, -24271.85, -21596.30, -22938.28, -15959.79, 0.000, 0.000, 0.000, 23:07:17.709, 1574395637709
69, 13177.13, -5883.36, -21904.80, -22067.47, -24290.47, -21784.19, -22906.65, -16208.05, 0.000, 0.000, 0.000, 23:07:17.716, 1574395637716
70, 13168.73, -5901.71, -21774.91, -20930.55, -24236.58, -21573.48, -22897.55, -15983.31, 0.000, 0.000, 0.000, 23:07:17.722, 1574395637722
71, 13147.34, -5968.07, -21684.92, -19022.41, -24215.63, -21364.09, -22931.84, -15713.34, 0.000, 0.000, 0.000, 23:07:17.722, 1574395637722
72, 13151.83, -5964.27, -21800.37, -19908.56, -24263.20, -21551.39, -22947.95, -15907.42, 0.000, 0.000, 0.000, 23:07:17.729, 1574395637729
73, 13167.77, -5907.50, -21917.34, -21945.99, -24297.44, -21798.52, -22928.42, -16217.58, 0.000, 0.000, 0.000, 23:07:17.730, 1574395637730
74, 13153.17, -5915.55, -21822.32, -21334.87, -24256.92, -21647.53, -22916.57, -16069.21, 0.000, 0.000, 0.000, 23:07:17.738, 1574395637738
75, 13129.62, -5979.29, -21697.98, -19221.65, -24212.91, -21380.27, -22934.97, -15734.55, 0.096, 0.882, 0.482, 23:07:17.738, 1574395637738
76, 13139.83, -5976.54, -21777.42, -19554.40, -24241.76, -21486.44, -22943.19, -15827.14, 0.000, 0.000, 0.000, 23:07:17.745, 1574395637745
77, 13150.63, -5923.68, -21929.09, -21719.57, -24306.05, -21782.11, -22938.95, -16178.39, 0.000, 0.000, 0.000, 23:07:17.745, 1574395637745
78, 13158.05, -5908.37, -21849.21, -21662.15, -24275.83, -21694.51, -22917.56, -16115.41, 0.000, 0.000, 0.000, 23:07:17.753, 1574395637753
79, 13149.67, -5956.67, -21688.84, -19496.64, -24216.53, -21398.87, -22922.72, -15762.67, 0.000, 0.000, 0.000, 23:07:17.753, 1574395637753
80, 13143.92, -5978.33, -21737.32, -19257.05, -24240.85, -21442.90, -22942.54, -15776.46, 0.000, 0.000, 0.000, 23:07:17.760, 1574395637760
81, 13172.55, -5913.67, -21887.14, -21367.87, -24287.38, -21728.89, -22923.19, -16119.56, 0.000, 0.000, 0.000, 23:07:17.761, 1574395637761
82, 13177.40, -5886.38, -21866.09, -21888.41, -24276.47, -21731.30, -22907.16, -16161.61, 0.000, 0.000, 0.000, 23:07:17.768, 1574395637768
83, 13157.91, -5934.43, -21705.85, -19848.93, -24222.05, -21441.22, -22917.04, -15825.26, 0.000, 0.000, 0.000, 23:07:17.768, 1574395637768
84, 13147.99, -5961.75, -21716.19, -19051.20, -24229.31, -21405.79, -22939.28, -15746.78, 0.000, 0.000, 0.000, 23:07:17.775, 1574395637775
85, 13157.60, -5923.75, -21886.65, -20997.34, -24293.30, -21701.84, -22940.94, -16086.21, 0.092, 0.878, 0.482, 23:07:17.782, 1574395637782
86, 13180.02, -5878.42, -21891.70, -22056.83, -24282.13, -21774.89, -22909.73, -16204.39, 0.000, 0.000, 0.000, 23:07:17.783, 1574395637783
87, 13156.64, -5929.74, -21744.80, -20276.79, -24233.96, -21513.98, -22924.26, -15905.57, 0.000, 0.000, 0.000, 23:07:17.791, 1574395637791
88, 13134.29, -5982.65, -21709.31, -18975.27, -24237.78, -21409.10, -22955.78, -15745.78, 0.000, 0.000, 0.000, 23:07:17.791, 1574395637791
89, 13153.38, -5937.85, -21851.27, -20584.59, -24292.63, -21661.68, -22946.99, -16027.56, 0.000, 0.000, 0.000, 23:07:17.798, 1574395637798
90, 13173.29, -5876.52, -21898.54, -22107.69, -24306.29, -21805.89, -22914.81, -16229.60, 0.000, 0.000, 0.000, 23:07:17.798, 1574395637798
91, 13146.18, -5922.59, -21773.50, -20704.78, -24262.19, -21579.78, -22927.28, -15979.08, 0.000, 0.000, 0.000, 23:07:17.805, 1574395637805
92, 13131.16, -5975.67, -21698.94, -18976.43, -24229.85, -21388.76, -22949.00, -15729.06, 0.000, 0.000, 0.000, 23:07:17.805, 1574395637805
93, 13154.29, -5936.67, -21822.52, -20152.18, -24265.52, -21590.71, -22940.58, -15941.96, 0.000, 0.000, 0.000, 23:07:17.813, 1574395637813
94, 13178.21, -5877.03, -21919.71, -22037.61, -24295.50, -21797.46, -22912.30, -16209.08, 0.000, 0.000, 0.000, 23:07:17.813, 1574395637813
95, 13166.74, -5893.86, -21804.51, -21091.93, -24252.71, -21600.32, -22901.84, -16004.38, 0.000, 0.000, 0.000, 23:07:17.820, 1574395637820
96, 13146.11, -5956.56, -21699.54, -19089.73, -24222.83, -21364.42, -22929.02, -15705.21, 0.098, 0.878, 0.486, 23:07:17.821, 1574395637821
97, 13144.46, -5959.65, -21819.41, -19780.24, -24280.05, -21537.22, -22952.65, -15871.62, 0.000, 0.000, 0.000, 23:07:17.828, 1574395637828
98, 13161.80, -5897.93, -21951.33, -21879.59, -24325.40, -21797.33, -22933.63, -16197.73, 0.000, 0.000, 0.000, 23:07:17.828, 1574395637828
99, 13161.47, -5885.62, -21859.63, -21474.95, -24284.07, -21669.05, -22917.51, -16085.68, 0.000, 0.000, 0.000, 23:07:17.834, 1574395637834
100, 13140.84, -5950.10, -21722.79, -19329.38, -24238.83, -21396.12, -22937.45, -15754.83, 0.000, 0.000, 0.000, 23:07:17.843, 1574395637843
101, 13141.35, -5959.22, -21790.94, -19441.32, -24270.08, -21487.16, -22953.65, -15828.92, 0.000, 0.000, 0.000, 23:07:17.843, 1574395637843
102, 13169.51, -5891.72, -21935.08, -21597.08, -24315.14, -21772.90, -22933.47, -16174.59, 0.000, 0.000, 0.000, 23:07:17.851, 1574395637851
103, 13175.19, -5869.28, -21884.86, -21771.25, -24290.80, -21726.25, -22912.97, -16153.52, 0.000, 0.000, 0.000, 23:07:17.851, 1574395637851
104, 13160.35, -5921.92, -21724.69, -19641.26, -24238.54, -21436.93, -22929.69, -15813.41, 0.000, 0.000, 0.000, 23:07:17.857, 1574395637857
105, 13154.52, -5946.39, -21760.27, -19189.29, -24258.59, -21453.52, -22958.01, -15799.80, 0.000, 0.000, 0.000, 23:07:17.857, 1574395637857
106, 13170.70, -5894.69, -21927.48, -21264.98, -24323.08, -21755.55, -22953.16, -16150.16, 0.100, 0.886, 0.480, 23:07:17.865, 1574395637865
107, 13177.27, -5855.91, -21907.59, -22005.02, -24310.70, -21782.20, -22926.38, -16213.66, 0.000, 0.000, 0.000, 23:07:17.865, 1574395637865
108, 13134.35, -5932.13, -21772.41, -20055.35, -24277.73, -21510.09, -22954.77, -15897.30, 0.000, 0.000, 0.000, 23:07:17.874, 1574395637874
109, 13142.00, -5958.80, -21755.27, -19044.87, -24271.51, -21434.70, -22969.97, -15774.68, 0.000, 0.000, 0.000, 23:07:17.874, 1574395637874
110, 13171.06, -5899.54, -21900.06, -20854.31, -24313.58, -21693.75, -22944.67, -16063.53, 0.000, 0.000, 0.000, 23:07:17.881, 1574395637881
111, 13181.09, -5850.93, -21929.05, -22099.75, -24312.10, -21787.59, -22911.03, -16206.38, 0.000, 0.000, 0.000, 23:07:17.881, 1574395637881
112, 13160.55, -5892.28, -21786.71, -20444.92, -24265.81, -21524.42, -22919.79, -15914.46, 0.000, 0.000, 0.000, 23:07:17.889, 1574395637889
113, 13147.70, -5941.54, -21739.31, -18966.06, -24259.69, -21387.36, -22952.36, -15721.55, 0.000, 0.000, 0.000, 23:07:17.889, 1574395637889
114, 13163.84, -5913.42, -21880.28, -20431.46, -24309.40, -21630.88, -22951.75, -15987.55, 0.000, 0.000, 0.000, 23:07:17.895, 1574395637895
115, 13187.62, -5851.84, -21940.63, -22101.65, -24323.14, -21789.71, -22913.20, -16203.63, 0.000, 0.000, 0.000, 23:07:17.895, 1574395637895
116, 13179.06, -5874.71, -21808.46, -20859.00, -24276.52, -21570.01, -22911.03, -15965.16, 0.094, 0.882, 0.478, 23:07:17.902, 1574395637902
117, 13160.37, -5934.75, -21725.38, -19013.33, -24248.67, -21369.52, -22937.63, -15703.80, 0.000, 0.000, 0.000, 23:07:17.910, 1574395637910
118, 13170.83, -5916.01, -21844.29, -20011.43, -24291.56, -21568.03, -22943.71, -15908.76, 0.000, 0.000, 0.000, 23:07:17.910, 1574395637910
119, 13187.15, -5858.93, -21948.32, -21992.62, -24325.54, -21808.02, -22925.80, -16212.77, 0.000, 0.000, 0.000, 23:07:17.918, 1574395637918
120, 13175.97, -5868.81, -21845.39, -21256.98, -24285.77, -21651.89, -22922.21, -16060.02, 0.000, 0.000, 0.000, 23:07:17.918, 1574395637918
121, 13147.34, -5937.76, -21730.90, -19187.90, -24259.89, -21410.06, -22954.77, -15755.48, 0.000, 0.000, 0.000, 23:07:17.925, 1574395637925
122, 13156.93, -5932.40, -21818.95, -19656.23, -24291.54, -21541.67, -22964.90, -15879.89, 0.000, 0.000, 0.000, 23:07:17.926, 1574395637926
123, 13198.86, -5852.29, -21938.64, -21788.90, -24319.68, -21801.53, -22929.00, -16199.00, 0.000, 0.000, 0.000, 23:07:17.932, 1574395637932
124, 13193.41, -5851.19, -21873.82, -21605.71, -24295.81, -21708.37, -22920.13, -16126.58, 0.000, 0.000, 0.000, 23:07:17.932, 1574395637932
125, 13160.91, -5919.88, -21734.93, -19453.24, -24259.53, -21433.29, -22949.63, -15794.12, 0.000, 0.000, 0.000, 23:07:17.940, 1574395637940
126, 13158.47, -5935.30, -21788.41, -19353.84, -24287.94, -21497.62, -22971.69, -15832.50, 0.098, 0.878, 0.478, 23:07:17.940, 1574395637940
127, 13163.59, -5893.08, -21955.09, -21512.48, -24355.44, -21806.05, -22970.84, -16193.35, 0.000, 0.000, 0.000, 23:07:17.948, 1574395637948
128, 13187.33, -5849.18, -21898.96, -21887.50, -24316.04, -21759.38, -22925.54, -16179.60, 0.000, 0.000, 0.000, 23:07:17.948, 1574395637948
129, 13170.36, -5901.46, -21741.03, -19798.10, -24253.16, -21461.07, -22928.06, -15827.07, 0.000, 0.000, 0.000, 23:07:17.955, 1574395637955
130, 13162.92, -5931.53, -21761.37, -19129.47, -24266.48, -21447.01, -22951.02, -15768.15, 0.000, 0.000, 0.000, 23:07:17.955, 1574395637955
131, 13183.53, -5873.01, -21917.36, -21115.96, -24322.18, -21731.84, -22937.70, -16096.67, 0.000, 0.000, 0.000, 23:07:17.962, 1574395637962
132, 13190.08, -5841.38, -21922.66, -22054.31, -24320.71, -21787.07, -22916.66, -16198.78, 0.000, 0.000, 0.000, 23:07:17.970, 1574395637970
133, 13166.56, -5894.36, -21776.37, -20194.98, -24274.69, -21510.78, -22931.19, -15883.77, 0.000, 0.000, 0.000, 23:07:17.970, 1574395637970
134, 13142.85, -5949.94, -21758.46, -19005.73, -24282.69, -21426.36, -22965.81, -15744.84, 0.000, 0.000, 0.000, 23:07:17.978, 1574395637978
135, 13164.24, -5905.40, -21908.26, -20702.36, -24333.58, -21689.95, -22957.39, -16041.18, 0.000, 0.000, 0.000, 23:07:17.978, 1574395637978
136, 13186.46, -5845.50, -21949.26, -22120.07, -24338.70, -21813.51, -22924.48, -16221.87, 0.098, 0.882, 0.478, 23:07:17.985, 1574395637985
137, 13171.79, -5879.11, -21801.82, -20604.64, -24285.10, -21559.13, -22926.32, -15945.26, 0.000, 0.000, 0.000, 23:07:17.986, 1574395637986
138, 13153.20, -5936.38, -21739.93, -18980.03, -24271.80, -21395.25, -22961.77, -15728.30, 0.000, 0.000, 0.000, 23:07:17.993, 1574395637993
139, 13157.82, -5913.98, -21886.69, -20288.59, -24330.12, -21635.17, -22977.28, -15988.67, 0.000, 0.000, 0.000, 23:07:17.993, 1574395637993
140, 13172.17, -5857.59, -21974.87, -22097.20, -24353.34, -21829.88, -22948.33, -16245.60, 0.000, 0.000, 0.000, 23:07:18.003, 1574395638003
141, 13155.14, -5882.93, -21850.77, -21036.16, -24310.38, -21625.02, -22942.63, -16033.44, 0.000, 0.000, 0.000, 23:07:18.003, 1574395638003
142, 13134.47, -5949.34, -21747.84, -19090.71, -24283.72, -21407.49, -22972.43, -15752.44, 0.000, 0.000, 0.000, 23:07:18.008, 1574395638008
143, 13142.71, -5945.23, -21861.59, -19900.12, -24331.46, -21587.45, -22984.46, -15930.07, 0.000, 0.000, 0.000, 23:07:18.008, 1574395638008
144, 13168.28, -5874.51, -21975.77, -21952.97, -24362.98, -21827.91, -22952.87, -16236.17, 0.000, 0.000, 0.000, 23:07:18.015, 1574395638015
145, 13139.16, -5885.88, -21877.73, -21417.26, -24326.21, -21683.14, -22936.51, -16099.11, 0.000, 0.000, 0.000, 23:07:18.015, 1574395638015
146, 13100.16, -5960.67, -21743.15, -19284.35, -24280.01, -21412.57, -22952.58, -15763.77, 0.096, 0.882, 0.482, 23:07:18.024, 1574395638024
147, 13081.34, -5988.75, -21831.60, -19549.48, -24318.41, -21528.17, -22973.61, -15860.51, 0.000, 0.000, 0.000, 23:07:18.030, 1574395638030
148, 13078.50, -5957.12, -21983.10, -21721.09, -24374.80, -21823.28, -22966.77, -16213.20, 0.000, 0.000, 0.000, 23:07:18.030, 1574395638030
149, 13055.81, -5961.30, -21923.86, -21758.53, -24346.73, -21754.86, -22949.05, -16169.45, 0.000, 0.000, 0.000, 23:07:18.038, 1574395638038
150, 13004.22, -6039.64, -21777.06, -19616.79, -24298.07, -21470.15, -22969.34, -15828.61, 0.000, 0.000, 0.000, 23:07:18.038, 1574395638038
151, 12974.87, -6079.99, -21821.00, -19300.87, -24327.57, -21509.15, -22994.58, -15833.80, 0.000, 0.000, 0.000, 23:07:18.045, 1574395638045
152, 12977.89, -6042.01, -21979.27, -21396.83, -24381.33, -21805.36, -22982.29, -16179.31, 0.000, 0.000, 0.000, 23:07:18.045, 1574395638045
153, 12971.48, -6021.74, -21946.93, -21991.68, -24349.95, -21797.91, -22947.28, -16215.18, 0.000, 0.000, 0.000, 23:07:18.053, 1574395638053
154, 12940.77, -6084.57, -21790.40, -19977.07, -24297.60, -21504.88, -22958.62, -15876.49, 0.000, 0.000, 0.000, 23:07:18.053, 1574395638053
155, 12918.50, -6134.68, -21795.63, -19098.71, -24311.84, -21462.84, -22988.46, -15789.18, 0.000, 0.000, 0.000, 23:07:18.060, 1574395638060
156, 12929.05, -6094.63, -21956.86, -20996.47, -24372.83, -21748.54, -22981.86, -16117.55, 0.088, 0.880, 0.480, 23:07:18.060, 1574395638060
157, 12941.77, -6051.00, -21974.80, -22129.25, -24373.12, -21827.97, -22950.86, -16248.89, 0.000, 0.000, 0.000, 23:07:18.068, 1574395638068
158, 12927.58, -6094.02, -21820.35, -20390.62, -24316.17, -21557.72, -22956.40, -15943.41, 0.000, 0.000, 0.000, 23:07:18.068, 1574395638068
159, 12913.59, -6144.96, -21783.88, -19013.87, -24306.98, -21435.54, -22984.61, -15766.45, 0.000, 0.000, 0.000, 23:07:18.075, 1574395638075
160, 12938.91, -6106.99, -21940.67, -20570.11, -24370.78, -21692.41, -22989.84, -16050.72, 0.000, 0.000, 0.000, 23:07:18.076, 1574395638076
161, 12961.42, -6044.25, -22005.96, -22165.24, -24393.66, -21850.37, -22966.44, -16271.11, 0.000, 0.000, 0.000, 23:07:18.083, 1574395638083
162, 12953.80, -6065.12, -21856.14, -20815.78, -24339.24, -21612.06, -22962.15, -16015.40, 0.000, 0.000, 0.000, 23:07:18.090, 1574395638090
163, 12937.61, -6122.34, -21778.73, -19043.19, -24323.37, -21429.35, -22995.96, -15768.98, 0.000, 0.000, 0.000, 23:07:18.090, 1574395638090
164, 12948.16, -6099.01, -21921.96, -20170.57, -24385.02, -21656.52, -23014.05, -16004.14, 0.000, 0.000, 0.000, 23:07:18.097, 1574395638097
165, 12998.05, -6009.83, -22000.53, -22080.44, -24393.26, -21862.15, -22969.72, -16269.03, 0.000, 0.000, 0.000, 23:07:18.098, 1574395638098
166, 13007.84, -6003.05, -21879.27, -21212.90, -24339.64, -21674.87, -22951.40, -16078.75, 0.000, 0.000, 0.000, 23:07:18.105, 1574395638105
167, 13002.50, -6049.32, -21758.06, -19172.45, -24299.63, -21428.88, -22971.98, -15769.04, 0.090, 0.886, 0.472, 23:07:18.105, 1574395638105
168, 13015.67, -6042.32, -21862.29, -19776.17, -24348.69, -21585.73, -22988.48, -15917.73, 0.000, 0.000, 0.000, 23:07:18.111, 1574395638111
169, 13048.59, -5972.86, -21996.22, -21901.54, -24392.55, -21853.99, -22970.15, -16248.09, 0.000, 0.000, 0.000, 23:07:18.112, 1574395638112
170, 13055.88, -5960.85, -21907.95, -21583.92, -24359.89, -21737.07, -22955.08, -16147.57, 0.000, 0.000, 0.000, 23:07:18.119, 1574395638119
171, 13050.36, -6007.08, -21751.62, -19419.46, -24302.20, -21447.53, -22965.57, -15800.76, 0.000, 0.000, 0.000, 23:07:18.120, 1574395638120
172, 13052.10, -6016.89, -21826.79, -19453.62, -24337.90, -21534.14, -22990.31, -15862.18, 0.000, 0.000, 0.000, 23:07:18.127, 1574395638127
173, 13074.63, -5958.73, -21977.06, -21618.16, -24399.92, -21835.80, -22984.79, -16218.22, 0.000, 0.000, 0.000, 23:07:18.128, 1574395638128
174, 13079.84, -5937.09, -21931.71, -21880.26, -24381.30, -21801.47, -22969.26, -16216.50, 0.000, 0.000, 0.000, 23:07:18.135, 1574395638135
175, 13074.18, -5976.01, -21771.52, -19756.01, -24316.89, -21501.42, -22974.17, -15864.28, 0.000, 0.000, 0.000, 23:07:18.136, 1574395638136
176, 13077.07, -5997.87, -21805.02, -19211.73, -24338.12, -21506.27, -23002.72, -15833.55, 0.000, 0.000, 0.000, 23:07:18.143, 1574395638143
177, 13091.48, -5953.77, -21971.88, -21259.01, -24407.17, -21808.78, -23002.89, -16182.86, 0.088, 0.898, 0.464, 23:07:18.144, 1574395638144
178, 13115.31, -5905.64, -21951.36, -22073.11, -24392.41, -21837.32, -22967.18, -16254.19, 0.000, 0.000, 0.000, 23:07:18.149, 1574395638149
179, 13103.26, -5943.75, -21788.57, -20140.98, -24332.64, -21549.00, -22967.00, -15919.74, 0.000, 0.000, 0.000, 23:07:18.157, 1574395638157
180, 13101.16, -5978.11, -21772.99, -19059.35, -24329.87, -21470.79, -22989.19, -15793.59, 0.000, 0.000, 0.000, 23:07:18.157, 1574395638157
181, 13123.45, -5931.35, -21930.88, -20837.61, -24386.38, -21741.79, -22981.88, -16100.79, 0.000, 0.000, 0.000, 23:07:18.165, 1574395638165
182, 13140.46, -5880.30, -21974.87, -22162.85, -24399.81, -21856.34, -22956.87, -16266.86, 0.000, 0.000, 0.000, 23:07:18.165, 1574395638165
183, 13122.22, -5914.03, -21823.68, -20557.44, -24349.97, -21602.87, -22964.99, -15981.32, 0.000, 0.000, 0.000, 23:07:18.172, 1574395638172
184, 13110.59, -5964.94, -21773.10, -19017.40, -24340.51, -21457.88, -22997.24, -15780.80, 0.000, 0.000, 0.000, 23:07:18.172, 1574395638172
185, 13129.10, -5932.49, -21916.96, -20422.25, -24401.73, -21703.86, -23004.57, -16048.19, 0.000, 0.000, 0.000, 23:07:18.180, 1574395638180
186, 13146.87, -5875.51, -21998.27, -22160.57, -24432.15, -21892.44, -22986.96, -16297.53, 0.000, 0.000, 0.000, 23:07:18.180, 1574395638180
187, 13148.50, -5885.24, -21855.11, -20972.48, -24366.80, -21667.29, -22972.92, -16058.99, 0.090, 0.904, 0.462, 23:07:18.188, 1574395638188
188, 13132.75, -5942.08, -21763.09, -19083.14, -24334.25, -21459.44, -23000.48, -15788.13, 0.000, 0.000, 0.000, 23:07:18.188, 1574395638188
189, 13144.97, -5925.83, -21883.79, -20011.43, -24382.15, -21647.42, -23014.34, -15986.55, 0.000, 0.000, 0.000, 23:07:18.195, 1574395638195
190, 13166.52, -5862.39, -21994.43, -22027.69, -24417.56, -21881.22, -22989.93, -16286.62, 0.000, 0.000, 0.000, 23:07:18.195, 1574395638195
191, 13158.94, -5871.31, -21899.84, -21376.89, -24377.24, -21726.39, -22981.35, -16136.77, 0.000, 0.000, 0.000, 23:07:18.204, 1574395638204
192, 13146.00, -5929.07, -21773.19, -19276.57, -24327.35, -21464.09, -22991.45, -15808.43, 0.000, 0.000, 0.000, 23:07:18.204, 1574395638204
193, 13134.78, -5943.46, -21881.28, -19671.59, -24380.97, -21601.15, -23015.63, -15928.95, 0.000, 0.000, 0.000, 23:07:18.211, 1574395638211
194, 13154.09, -5879.09, -22026.86, -21820.31, -24431.73, -21878.02, -22994.85, -16259.98, 0.000, 0.000, 0.000, 23:07:18.218, 1574395638218
195, 13174.74, -5844.11, -21939.96, -21706.22, -24381.84, -21767.02, -22955.93, -16173.54, 0.000, 0.000, 0.000, 23:07:18.218, 1574395638218
196, 13155.68, -5908.48, -21792.77, -19548.66, -24330.74, -21481.21, -22973.14, -15830.26, 0.000, 0.000, 0.000, 23:07:18.224, 1574395638224
197, 13151.59, -5930.45, -21849.39, -19365.17, -24361.50, -21536.38, -22998.42, -15855.48, 0.094, 0.900, 0.466, 23:07:18.224, 1574395638224
198, 13180.85, -5859.15, -21998.16, -21481.12, -24408.15, -21823.77, -22978.24, -16191.02, 0.000, 0.000, 0.000, 23:07:18.232, 1574395638232
199, 13183.28, -5838.21, -21974.13, -21954.60, -24397.06, -21806.74, -22962.28, -16217.38, 0.000, 0.000, 0.000, 23:07:18.232, 1574395638232
200, 13160.77, -5895.52, -21824.55, -19906.73, -24347.96, -21514.36, -22978.02, -15880.71, 0.000, 0.000, 0.000, 23:07:18.240, 1574395638240
201, 13153.24, -5925.72, -21840.94, -19152.58, -24360.49, -21488.34, -23002.69, -15813.01, 0.000, 0.000, 0.000, 23:07:18.240, 1574395638240
202, 13180.47, -5871.49, -21996.40, -21088.69, -24415.41, -21769.79, -22993.33, -16135.10, 0.000, 0.000, 0.000, 23:07:18.247, 1574395638247
203, 13192.69, -5831.37, -22011.48, -22106.30, -24416.11, -21834.61, -22974.66, -16252.89, 0.000, 0.000, 0.000, 23:07:18.248, 1574395638248
204, 13180.42, -5862.71, -21855.89, -20300.79, -24358.33, -21555.31, -22977.66, -15940.39, 0.000, 0.000, 0.000, 23:07:18.255, 1574395638255
205, 13165.33, -5910.34, -21829.58, -19041.21, -24357.25, -21450.05, -23005.38, -15784.02, 0.000, 0.000, 0.000, 23:07:18.255, 1574395638255
206, 13176.71, -5872.52, -21982.40, -20673.26, -24415.08, -21712.26, -23003.77, -16073.65, 0.000, 0.000, 0.000, 23:07:18.263, 1574395638263
207, 13191.78, -5828.24, -22044.61, -22163.83, -24434.21, -21865.30, -22983.43, -16279.27, 0.104, 0.882, 0.484, 23:07:18.263, 1574395638263
208, 13185.09, -5855.58, -21903.77, -20728.13, -24375.83, -21618.21, -22977.93, -16011.36, 0.000, 0.000, 0.000, 23:07:18.270, 1574395638270
209, 13158.78, -5916.64, -21846.08, -19057.97, -24363.96, -21447.01, -23008.64, -15780.82, 0.000, 0.000, 0.000, 23:07:18.277, 1574395638277
210, 13165.33, -5899.16, -21987.43, -20284.59, -24424.40, -21672.18, -23022.61, -16022.94, 0.000, 0.000, 0.000, 23:07:18.277, 1574395638277
211, 13196.45, -5826.14, -22066.13, -22105.18, -24441.14, -21857.81, -22982.22, -16271.22, 0.000, 0.000, 0.000, 23:07:18.285, 1574395638285
212, 13196.65, -5833.72, -21931.11, -21122.40, -24384.70, -21649.92, -22959.96, -16058.19, 0.000, 0.000, 0.000, 23:07:18.285, 1574395638285
213, 13172.06, -5898.94, -21821.58, -19163.47, -24352.25, -21422.51, -22987.63, -15768.95, 0.000, 0.000, 0.000, 23:07:18.293, 1574395638293
214, 13174.81, -5890.53, -21923.82, -19874.61, -24395.52, -21590.22, -23000.88, -15932.97, 0.000, 0.000, 0.000, 23:07:18.293, 1574395638293
215, 13193.14, -5831.84, -22045.50, -21924.89, -24439.64, -21841.39, -22981.84, -16245.34, 0.000, 0.000, 0.000, 23:07:18.299, 1574395638299
216, 13200.78, -5823.55, -21943.42, -21472.29, -24395.72, -21699.21, -22957.25, -16113.08, 0.000, 0.000, 0.000, 23:07:18.299, 1574395638299
217, 13174.59, -5892.50, -21815.48, -19375.45, -24355.00, -21435.97, -22979.58, -15787.82, 0.114, 0.864, 0.500, 23:07:18.307, 1574395638307
218, 13169.56, -5907.72, -21890.27, -19541.32, -24394.27, -21535.90, -23003.97, -15870.41, 0.000, 0.000, 0.000, 23:07:18.307, 1574395638307
219, 13198.97, -5840.00, -22025.03, -21644.09, -24443.17, -21808.64, -22983.63, -16199.74, 0.000, 0.000, 0.000, 23:07:18.315, 1574395638315
220, 13199.06, -5822.56, -21973.46, -21758.24, -24423.71, -21747.62, -22966.17, -16165.12, 0.000, 0.000, 0.000, 23:07:18.315, 1574395638315
221, 13189.99, -5864.36, -21813.71, -19664.19, -24356.96, -21441.67, -22963.71, -15808.49, 0.000, 0.000, 0.000, 23:07:18.322, 1574395638322
222, 13192.27, -5882.67, -21843.33, -19260.21, -24372.95, -21453.07, -22981.48, -15789.56, 0.000, 0.000, 0.000, 23:07:18.322, 1574395638322
223, 13214.42, -5827.14, -22002.12, -21279.06, -24438.37, -21745.59, -22978.75, -16131.34, 0.000, 0.000, 0.000, 23:07:18.328, 1574395638328
224, 13221.95, -5794.35, -21992.10, -21942.60, -24431.39, -21763.78, -22957.74, -16190.44, 0.000, 0.000, 0.000, 23:07:18.337, 1574395638337
225, 13193.03, -5854.08, -21848.63, -20034.76, -24385.80, -21490.84, -22973.59, -15871.28, 0.000, 0.000, 0.000, 23:07:18.337, 1574395638337
226, 13183.42, -5886.58, -21840.36, -19112.33, -24381.19, -21437.15, -22996.32, -15768.46, 0.000, 0.000, 0.000, 23:07:18.345, 1574395638345
227, 13198.68, -5848.47, -22007.33, -20903.96, -24445.99, -21719.32, -23001.31, -16088.99, 0.132, 0.850, 0.510, 23:07:18.345, 1574395638345
228, 13215.89, -5803.76, -22031.31, -22071.21, -24454.39, -21810.47, -22977.30, -16233.51, 0.000, 0.000, 0.000, 23:07:18.352, 1574395638352
229, 13202.24, -5841.85, -21871.11, -20447.73, -24396.64, -21545.09, -22973.21, -15934.42, 0.000, 0.000, 0.000, 23:07:18.352, 1574395638352
230, 13178.50, -5898.27, -21827.33, -19065.86, -24388.37, -21423.95, -23004.50, -15754.94, 0.000, 0.000, 0.000, 23:07:18.360, 1574395638360
231, 13201.30, -5854.39, -21967.03, -20498.70, -24433.52, -21660.43, -22996.50, -16012.50, 0.000, 0.000, 0.000, 23:07:18.360, 1574395638360
232, 13219.80, -5799.20, -22037.81, -22072.84, -24453.66, -21813.67, -22966.62, -16227.14, 0.000, 0.000, 0.000, 23:07:18.368, 1574395638368
233, 13198.88, -5831.59, -21914.14, -20854.98, -24414.09, -21595.18, -22968.47, -15994.44, 0.000, 0.000, 0.000, 23:07:18.369, 1574395638369
234, 13162.50, -5911.23, -21839.98, -19137.21, -24400.24, -21420.73, -23007.16, -15756.19, 0.000, 0.000, 0.000, 23:07:18.374, 1574395638374
235, 13188.51, -5878.60, -21947.89, -20120.23, -24430.88, -21601.44, -23000.48, -15946.92, 0.000, 0.000, 0.000, 23:07:18.375, 1574395638375
236, 13225.46, -5801.46, -22041.08, -21963.29, -24451.06, -21806.09, -22965.23, -16216.75, 0.000, 0.000, 0.000, 23:07:18.381, 1574395638381
237, 13214.04, -5810.25, -21932.87, -21218.98, -24406.32, -21643.69, -22954.39, -16048.91, 0.000, 0.000, 0.000, 23:07:18.381, 1574395638381
238, 13193.07, -5877.21, -21815.35, -19269.13, -24367.22, -21405.15, -22974.62, -15745.40, 0.144, 0.836, 0.500, 23:07:18.389, 1574395638389
239, 13200.13, -5872.94, -21918.03, -19761.80, -24413.94, -21544.09, -22994.85, -15878.32, 0.000, 0.000, 0.000, 23:07:18.389, 1574395638389
240, 13228.46, -5807.41, -22054.26, -21765.50, -24463.63, -21803.32, -22980.70, -16199.56, 0.000, 0.000, 0.000, 23:07:18.397, 1574395638397
241, 13212.79, -5811.70, -21983.77, -21552.42, -24432.62, -21718.54, -22974.40, -16122.74, 0.000, 0.000, 0.000, 23:07:18.404, 1574395638404
242, 13175.15, -5886.15, -21852.74, -19539.13, -24392.77, -21475.87, -23004.06, -15804.00, 0.000, 0.000, 0.000, 23:07:18.404, 1574395638404
243, 13175.17, -5902.80, -21917.14, -19494.59, -24421.02, -21551.08, -23031.37, -15841.73, 0.000, 0.000, 0.000, 23:07:18.412, 1574395638412
244, 13212.96, -5827.23, -22056.14, -21482.98, -24448.09, -21817.18, -23008.66, -16152.11, 0.000, 0.000, 0.000, 23:07:18.412, 1574395638412
245, 13222.00, -5800.08, -22006.72, -21794.43, -24421.09, -21790.60, -22990.06, -16142.74, 0.000, 0.000, 0.000, 23:07:18.420, 1574395638420
246, 13197.50, -5855.93, -21843.26, -19855.66, -24365.86, -21523.52, -23006.29, -15819.51, 0.000, 0.000, 0.000, 23:07:18.420, 1574395638420
247, 13190.50, -5882.96, -21856.32, -19277.80, -24383.29, -21515.61, -23028.93, -15787.62, 0.000, 0.000, 0.000, 23:07:18.428, 1574395638428
248, 13218.02, -5818.63, -22012.20, -21141.20, -24443.55, -21785.93, -23015.05, -16113.98, 0.146, 0.848, 0.544, 23:07:18.428, 1574395638428
249, 13236.23, -5782.60, -22006.54, -21969.57, -24429.88, -21826.99, -22982.26, -16198.62, 0.000, 0.000, 0.000, 23:07:18.435, 1574395638435
250, 13213.41, -5839.59, -21836.74, -20234.27, -24370.38, -21566.59, -22981.64, -15888.49, 0.000, 0.000, 0.000, 23:07:18.435, 1574395638435
251, 13188.07, -5891.27, -21808.48, -19172.32, -24371.51, -21487.13, -23007.34, -15759.61, 0.000, 0.000, 0.000, 23:07:18.442, 1574395638442
252, 13204.27, -5852.74, -21967.70, -20766.20, -24438.57, -21745.61, -23021.09, -16061.29, 0.000, 0.000, 0.000, 23:07:18.442, 1574395638442
253, 13232.41, -5794.35, -22001.29, -22035.18, -24453.10, -21858.44, -22997.44, -16231.14, 0.000, 0.000, 0.000, 23:07:18.450, 1574395638450
254, 13218.33, -5830.14, -21836.54, -20619.19, -24395.50, -21617.44, -22984.34, -15957.04, 0.000, 0.000, 0.000, 23:07:18.450, 1574395638450
255, 13195.55, -5889.30, -21774.89, -19162.96, -24372.07, -21474.24, -23008.95, -15749.64, 0.000, 0.000, 0.000, 23:07:18.457, 1574395638457
0, 13204.65, -5861.72, -21931.35, -20365.48, -24422.05, -21697.35, -23024.73, -15995.47, 0.000, 0.000, 0.000, 23:07:18.464, 1574395638464
1, 13238.74, -5789.79, -22007.95, -21965.64, -24437.63, -21866.49, -22994.85, -16229.29, 0.000, 0.000, 0.000, 23:07:18.464, 1574395638464
2, 13230.02, -5810.72, -21875.74, -20983.68, -24391.56, -21674.84, -22984.01, -16022.18, 0.158, 0.850, 0.540, 23:07:18.472, 1574395638472
3, 13202.33, -5878.67, -21770.60, -19271.45, -24358.35, -21482.17, -23008.68, -15761.76, 0.000, 0.000, 0.000, 23:07:18.472, 1574395638472
4, 13207.53, -5863.98, -21894.00, -20025.15, -24407.41, -21649.79, -23024.98, -15937.22, 0.000, 0.000, 0.000, 23:07:18.480, 1574395638480
5, 13243.94, -5788.30, -22012.76, -21820.76, -24446.57, -21861.53, -23001.78, -16219.52, 0.000, 0.000, 0.000, 23:07:18.480, 1574395638480
6, 13240.66, -5795.11, -21910.19, -21308.01, -24410.54, -21726.21, -22990.38, -16086.73, 0.000, 0.000, 0.000, 23:07:18.487, 1574395638487
7, 13203.35, -5869.50, -21782.47, -19463.99, -24373.39, -21499.25, -23018.94, -15794.97, 0.000, 0.000, 0.000, 23:07:18.487, 1574395638487
8, 13204.31, -5874.51, -21867.36, -19724.01, -24406.29, -21602.76, -23038.84, -15889.54, 0.000, 0.000, 0.000, 23:07:18.495, 1574395638495
9, 13233.37, -5805.51, -22012.38, -21584.43, -24454.53, -21845.63, -23024.29, -16204.75, 0.000, 0.000, 0.000, 23:07:18.495, 1574395638495
10, 13239.94, -5785.99, -21945.12, -21569.14, -24425.65, -21764.05, -23000.88, -16159.17, 0.000, 0.000, 0.000, 23:07:18.503, 1574395638503
11, 13211.96, -5852.51, -21796.15, -19741.66, -24379.56, -21507.88, -23012.17, -15846.11, 0.000, 0.000, 0.000, 23:07:18.503, 1574395638503
12, 13205.88, -5871.11, -21842.53, -19511.93, -24395.34, -21544.00, -23031.06, -15850.40, 0.154, 0.852, 0.520, 23:07:18.508, 1574395638508
13, 13238.80, -5804.30, -21999.28, -21282.26, -24441.99, -21795.10, -23020.37, -16163.04, 0.000, 0.000, 0.000, 23:07:18.509, 1574395638509
14, 13248.82, -5775.31, -21972.28, -21747.75, -24425.29, -21788.70, -22999.30, -16196.23, 0.000, 0.000, 0.000, 23:07:18.515, 1574395638515
15, 13209.57, -5851.28, -21827.06, -20076.89, -24379.96, -21547.42, -23017.33, -15898.15, 0.000, 0.000, 0.000, 23:07:18.524, 1574395638524
16, 13176.00, -5902.92, -21842.77, -19406.92, -24401.69, -21528.30, -23058.55, -15836.55, 0.000, 0.000, 0.000, 23:07:18.524, 1574395638524
17, 13222.82, -5818.72, -21973.73, -20956.79, -24433.07, -21742.77, -23032.96, -16105.95, 0.000, 0.000, 0.000, 23:07:18.533, 1574395638533
18, 13251.81, -5764.47, -21976.53, -21833.59, -24429.72, -21796.24, -23000.82, -16211.81, 0.000, 0.000, 0.000, 23:07:18.534, 1574395638534
19, 13232.86, -5811.74, -21815.19, -20403.72, -24372.68, -21564.72, -23003.54, -15934.49, 0.000, 0.000, 0.000, 23:07:18.546, 1574395638546
20, 13209.14, -5869.21, -21780.84, -19343.62, -24364.16, -21476.16, -23033.27, -15784.62, 0.000, 0.000, 0.000, 23:07:18.546, 1574395638546
21, 13227.96, -5825.54, -21935.06, -20620.38, -24423.57, -21697.75, -23041.56, -16044.57, 0.000, 0.000, 0.000, 23:07:18.547, 1574395638547
22, 13257.07, -5756.31, -21991.08, -21835.91, -24434.35, -21816.82, -23013.38, -16227.39, 0.152, 0.854, 0.522, 23:07:18.547, 1574395638547
23, 13239.34, -5799.18, -21848.88, -20755.25, -24382.89, -21622.96, -23008.79, -15999.89, 0.000, 0.000, 0.000, 23:07:18.558, 1574395638558
24, 13213.48, -5863.56, -21765.23, -19409.23, -24356.16, -21475.44, -23028.98, -15781.14, 0.000, 0.000, 0.000, 23:07:18.558, 1574395638558
25, 13223.98, -5837.34, -21899.21, -20309.64, -24404.73, -21657.74, -23039.26, -15983.26, 0.000, 0.000, 0.000, 23:07:18.562, 1574395638562
26, 13251.05, -5769.39, -21997.56, -21750.50, -24436.40, -21821.81, -23020.46, -16225.49, 0.000, 0.000, 0.000, 23:07:18.562, 1574395638562
27, 13234.33, -5792.92, -21888.88, -21071.59, -24396.39, -21679.54, -23013.11, -16064.91, 0.000, 0.000, 0.000, 23:07:18.570, 1574395638570
28, 13202.59, -5862.50, -21777.93, -19577.54, -24361.48, -21498.11, -23033.34, -15801.36, 0.000, 0.000, 0.000, 23:07:18.570, 1574395638570
29, 13213.86, -5848.36, -21878.27, -20051.48, -24403.81, -21617.13, -23045.50, -15927.41, 0.000, 0.000, 0.000, 23:07:18.577, 1574395638577
30, 13243.21, -5774.04, -22001.18, -21570.57, -24439.02, -21808.26, -23023.41, -16198.82, 0.000, 0.000, 0.000, 23:07:18.585, 1574395638585
31, 13241.87, -5772.92, -21917.05, -21308.01, -24398.40, -21716.75, -23005.85, -16106.53, 0.000, 0.000, 0.000, 23:07:18.585, 1574395638585
32, 13209.30, -5845.70, -21783.45, -19793.21, -24362.15, -21520.86, -23025.36, -15824.50, 0.140, 0.854, 0.524, 23:07:18.592, 1574395638592
33, 13196.04, -5869.52, -21856.00, -19868.76, -24398.69, -21596.95, -23052.89, -15886.84, 0.000, 0.000, 0.000, 23:07:18.592, 1574395638592
34, 13227.38, -5801.48, -22007.26, -21355.95, -24447.35, -21798.11, -23042.57, -16174.10, 0.000, 0.000, 0.000, 23:07:18.599, 1574395638599
35, 13250.14, -5763.60, -21937.59, -21470.04, -24409.65, -21741.47, -23006.22, -16142.23, 0.000, 0.000, 0.000, 23:07:18.600, 1574395638600
36, 13221.48, -5828.82, -21779.88, -20039.48, -24358.97, -21531.35, -23015.19, -15853.87, 0.000, 0.000, 0.000, 23:07:18.607, 1574395638607
37, 13209.95, -5856.72, -21811.30, -19723.34, -24377.46, -21548.51, -23043.13, -15835.58, 0.000, 0.000, 0.000, 23:07:18.607, 1574395638607
38, 13237.24, -5796.05, -21967.72, -21073.36, -24435.57, -21751.17, -23039.53, -16117.10, 0.000, 0.000, 0.000, 23:07:18.614, 1574395638614
39, 13251.32, -5759.40, -21971.14, -21567.80, -24433.88, -21769.41, -23020.06, -16180.58, 0.000, 0.000, 0.000, 23:07:18.614, 1574395638614
40, 13223.05, -5815.72, -21822.23, -20323.39, -24381.55, -21578.80, -23025.71, -15915.40, 0.000, 0.000, 0.000, 23:07:18.622, 1574395638622
41, 13207.60, -5860.07, -21807.84, -19672.31, -24377.10, -21536.04, -23048.56, -15817.30, 0.000, 0.000, 0.000, 23:07:18.622, 1574395638622
42, 13229.62, -5814.52, -21967.12, -20807.66, -24429.96, -21722.99, -23054.42, -16073.52, 0.152, 0.846, 0.534, 23:07:18.629, 1574395638629
43, 13252.71, -5759.64, -22000.96, -21588.88, -24429.34, -21785.26, -23027.26, -16199.52, 0.000, 0.000, 0.000, 23:07:18.629, 1574395638629
44, 13227.61, -5804.35, -21859.96, -20587.48, -24377.53, -21626.68, -23026.90, -15969.70, 0.000, 0.000, 0.000, 23:07:18.637, 1574395638637
45, 13200.69, -5863.82, -21821.43, -19696.16, -24374.71, -21551.62, -23059.22, -15819.71, 0.000, 0.000, 0.000, 23:07:18.637, 1574395638637
46, 13239.27, -5805.31, -21950.62, -20548.94, -24418.50, -21685.55, -23054.62, -16016.32, 0.000, 0.000, 0.000, 23:07:18.644, 1574395638644
47, 13270.54, -5734.25, -22013.27, -21536.31, -24437.88, -21786.13, -23028.31, -16194.49, 0.000, 0.000, 0.000, 23:07:18.652, 1574395638652
48, 13241.26, -5781.90, -21881.42, -20828.18, -24384.08, -21655.46, -23016.13, -16012.34, 0.000, 0.000, 0.000, 23:07:18.652, 1574395638652
49, 13203.96, -5854.53, -21787.74, -19755.07, -24348.47, -21539.75, -23029.94, -15801.63, 0.000, 0.000, 0.000, 23:07:18.661, 1574395638661
50, 13208.20, -5843.60, -21919.39, -20327.21, -24407.46, -21667.22, -23054.01, -15965.09, 0.000, 0.000, 0.000, 23:07:18.661, 1574395638661
51, 13241.31, -5773.81, -22025.56, -21448.04, -24436.65, -21784.50, -23030.34, -16179.85, 0.000, 0.000, 0.000, 23:07:18.666, 1574395638666
52, 13253.98, -5770.91, -21910.86, -21037.95, -24381.13, -21680.95, -23003.88, -16052.22, 0.000, 0.000, 0.000, 23:07:18.667, 1574395638667
53, 13214.15, -5851.33, -21798.65, -19892.92, -24348.02, -21564.09, -23028.76, -15832.83, 0.148, 0.838, 0.548, 23:07:18.673, 1574395638673
54, 13211.27, -5850.88, -21890.83, -20142.59, -24387.14, -21642.21, -23048.87, -15921.48, 0.000, 0.000, 0.000, 23:07:18.673, 1574395638673
55, 13233.10, -5787.36, -22025.41, -21304.21, -24428.58, -21771.31, -23032.00, -16153.65, 0.000, 0.000, 0.000, 23:07:18.682, 1574395638682
56, 13232.54, -5780.29, -21956.81, -21218.02, -24394.96, -21719.32, -23011.25, -16100.52, 0.000, 0.000, 0.000, 23:07:18.682, 1574395638682
57, 13218.08, -5837.74, -21805.06, -20060.53, -24341.63, -21587.78, -23018.92, -15865.13, 0.000, 0.000, 0.000, 23:07:18.688, 1574395638688
58, 13208.09, -5859.26, -21864.28, -19999.78, -24373.68, -21627.55, -23045.72, -15890.17, 0.000, 0.000, 0.000, 23:07:18.689, 1574395638689
59, 13233.75, -5796.50, -22014.28, -21129.37, -24425.56, -21749.07, -23035.21, -16116.50, 0.000, 0.000, 0.000, 23:07:18.697, 1574395638697
60, 13248.48, -5762.08, -21967.79, -21337.67, -24399.41, -21728.22, -23005.46, -16120.12, 0.000, 0.000, 0.000, 23:07:18.697, 1574395638697
61, 13216.83, -5834.81, -21830.08, -20264.78, -24360.99, -21623.50, -23025.74, -15915.89, 0.000, 0.000, 0.000, 23:07:18.703, 1574395638703
62, 13213.66, -5864.87, -21840.29, -19903.60, -24371.69, -21625.11, -23042.52, -15871.39, 0.000, 0.000, 0.000, 23:07:18.712, 1574395638712
63, 13240.41, -5804.12, -21983.70, -20919.02, -24411.88, -21721.42, -23023.03, -16058.48, 0.138, 0.824, 0.548, 23:07:18.712, 1574395638712
64, 13255.43, -5764.09, -21986.09, -21412.84, -24410.61, -21726.77, -23003.45, -16122.11, 0.000, 0.000, 0.000, 23:07:18.720, 1574395638720
65, 13238.42, -5810.20, -21837.79, -20467.74, -24357.21, -21631.39, -23008.82, -15940.12, 0.000, 0.000, 0.000, 23:07:18.720, 1574395638720
66, 13221.66, -5855.53, -21815.14, -19850.61, -24357.79, -21622.56, -23036.65, -15860.73, 0.000, 0.000, 0.000, 23:07:18.726, 1574395638726
67, 13230.29, -5825.04, -21965.55, -20720.00, -24419.93, -21724.26, -23050.73, -16040.33, 0.000, 0.000, 0.000, 23:07:18.726, 1574395638726
68, 13234.31, -5784.77, -22024.09, -21466.17, -24444.80, -21762.98, -23040.69, -16158.39, 0.000, 0.000, 0.000, 23:07:18.733, 1574395638733
69, 13231.63, -5808.86, -21881.37, -20704.33, -24383.41, -21672.16, -23024.49, -15998.06, 0.000, 0.000, 0.000, 23:07:18.734, 1574395638734
70, 13204.27, -5872.72, -21829.76, -19881.68, -24372.81, -21648.11, -23057.37, -15888.89, 0.000, 0.000, 0.000, 23:07:18.743, 1574395638743
71, 13212.41, -5846.63, -21955.65, -20528.09, -24417.07, -21719.39, -23062.62, -16015.67, 0.000, 0.000, 0.000, 23:07:18.743, 1574395638743
72, 13244.39, -5778.40, -22036.05, -21441.16, -24435.87, -21755.69, -23034.50, -16141.58, 0.000, 0.000, 0.000, 23:07:18.748, 1574395638748
73, 13249.78, -5780.12, -21908.08, -20914.97, -24385.35, -21693.46, -23020.11, -16035.68, 0.114, 0.814, 0.550, 23:07:18.749, 1574395638749
74, 13230.40, -5841.54, -21803.59, -19939.48, -24352.83, -21651.42, -23038.93, -15899.44, 0.000, 0.000, 0.000, 23:07:18.757, 1574395638757
75, 13221.48, -5847.91, -21913.43, -20339.42, -24402.83, -21718.32, -23059.98, -15993.68, 0.000, 0.000, 0.000, 23:07:18.757, 1574395638757
76, 13246.81, -5782.37, -22016.31, -21364.24, -24435.31, -21759.98, -23037.52, -16134.36, 0.000, 0.000, 0.000, 23:07:18.765, 1574395638765
77, 13254.61, -5773.21, -21918.70, -21106.06, -24389.40, -21709.33, -23014.41, -16067.82, 0.000, 0.000, 0.000, 23:07:18.771, 1574395638771
78, 13236.05, -5835.28, -21802.38, -20063.21, -24355.96, -21669.93, -23034.59, -15930.56, 0.000, 0.000, 0.000, 23:07:18.771, 1574395638771
79, 13227.05, -5848.24, -21882.29, -20183.60, -24391.16, -21712.30, -23055.80, -15975.62, 0.000, 0.000, 0.000, 23:07:18.779, 1574395638779
80, 13237.84, -5795.70, -22021.72, -21255.90, -24442.53, -21768.86, -23049.28, -16121.84, 0.000, 0.000, 0.000, 23:07:18.779, 1574395638779
81, 13235.14, -5786.84, -21980.62, -21296.90, -24422.95, -21746.46, -23033.07, -16105.10, 0.000, 0.000, 0.000, 23:07:18.786, 1574395638786
82, 13211.56, -5855.44, -21847.76, -20260.78, -24379.45, -21708.53, -23048.43, -15975.84, 0.000, 0.000, 0.000, 23:07:18.787, 1574395638787
83, 13211.36, -5869.05, -21874.91, -20085.19, -24391.41, -21726.81, -23057.92, -15969.36, 0.088, 0.830, 0.548, 23:07:18.794, 1574395638794
84, 13230.76, -5813.73, -22015.51, -21101.63, -24446.41, -21772.12, -23049.16, -16094.31, 0.000, 0.000, 0.000, 23:07:18.795, 1574395638795
85, 13251.03, -5775.85, -21989.47, -21402.82, -24426.52, -21752.07, -23022.88, -16106.08, 0.000, 0.000, 0.000, 23:07:18.800, 1574395638800
86, 13237.02, -5818.85, -21844.96, -20422.12, -24367.47, -21710.65, -23024.22, -15985.74, 0.000, 0.000, 0.000, 23:07:18.801, 1574395638801
87, 13217.23, -5866.35, -21851.87, -19991.60, -24385.53, -21739.91, -23056.70, -15968.38, 0.000, 0.000, 0.000, 23:07:18.809, 1574395638809
88, 13236.57, -5817.53, -21989.00, -20910.21, -24434.37, -21782.49, -23054.06, -16076.94, 0.000, 0.000, 0.000, 23:07:18.809, 1574395638809
89, 13255.23, -5763.46, -22001.42, -21470.68, -24429.21, -21765.46, -23025.38, -16111.52, 0.000, 0.000, 0.000, 23:07:18.817, 1574395638817
90, 13250.25, -5797.48, -21868.37, -20638.66, -24380.79, -21734.50, -23024.67, -16017.48, 0.000, 0.000, 0.000, 23:07:18.817, 1574395638817
91, 13235.50, -5849.27, -21837.34, -19967.68, -24376.03, -21751.85, -23051.44, -15973.50, 0.000, 0.000, 0.000, 23:07:18.823, 1574395638823
92, 13242.65, -5819.57, -21968.88, -20718.72, -24428.29, -21792.19, -23057.08, -16061.72, 0.000, 0.000, 0.000, 23:07:18.830, 1574395638830
93, 13255.84, -5770.19, -22028.36, -21501.82, -24441.21, -21793.42, -23033.79, -16122.27, 0.046, 0.840, 0.548, 23:07:18.831, 1574395638831
94, 13258.74, -5788.34, -21911.46, -20854.40, -24388.32, -21753.61, -23019.68, -16041.18, 0.000, 0.000, 0.000, 23:07:18.839, 1574395638839
95, 13243.39, -5840.53, -21850.69, -19999.29, -24369.48, -21766.29, -23044.74, -15983.13, 0.000, 0.000, 0.000, 23:07:18.839, 1574395638839
96, 13253.73, -5819.05, -21954.17, -20528.82, -24405.13, -21796.12, -23048.20, -16046.90, 0.000, 0.000, 0.000, 23:07:18.846, 1574395638846
97, 13271.19, -5761.36, -22042.46, -21468.67, -24427.46, -21802.76, -23027.88, -16120.73, 0.000, 0.000, 0.000, 23:07:18.846, 1574395638846
98, 13270.97, -5774.26, -21949.35, -21062.12, -24387.00, -21771.20, -23016.57, -16070.64, 0.000, 0.000, 0.000, 23:07:18.853, 1574395638853
99, 13238.45, -5848.27, -21870.00, -20076.69, -24368.52, -21782.27, -23049.28, -16010.46, 0.000, 0.000, 0.000, 23:07:18.854, 1574395638854
100, 13243.77, -5849.05, -21954.04, -20358.82, -24410.21, -21819.24, -23067.94, -16056.98, 0.000, 0.000, 0.000, 23:07:18.862, 1574395638862
101, 13249.60, -5798.11, -22075.30, -21395.38, -24455.65, -21836.45, -23059.31, -16141.56, 0.000, 0.000, 0.000, 23:07:18.862, 1574395638862
102, 13254.63, -5785.03, -22009.56, -21259.46, -24422.97, -21808.08, -23042.75, -16111.14, 0.000, 0.000, 0.000, 23:07:18.870, 1574395638870
103, 13249.93, -5834.77, -21895.25, -20205.69, -24374.82, -21797.98, -23055.96, -16028.06, 0.018, 0.840, 0.542, 23:07:18.870, 1574395638870
104, 13235.94, -5861.90, -21960.54, -20206.74, -24411.81, -21833.65, -23084.41, -16053.92, 0.000, 0.000, 0.000, 23:07:18.876, 1574395638876
105, 13251.79, -5804.79, -22082.70, -21254.79, -24458.22, -21844.83, -23070.06, -16131.61, 0.000, 0.000, 0.000, 23:07:18.877, 1574395638877
106, 13257.74, -5777.68, -22049.01, -21397.97, -24441.41, -21824.33, -23051.15, -16125.82, 0.000, 0.000, 0.000, 23:07:18.882, 1574395638882
107, 13246.34, -5822.72, -21920.11, -20360.00, -24389.82, -21802.43, -23055.31, -16043.88, 0.000, 0.000, 0.000, 23:07:18.883, 1574395638883
108, 13239.43, -5848.60, -21943.67, -20072.36, -24397.58, -21817.34, -23073.39, -16039.52, 0.000, 0.000, 0.000, 23:07:18.891, 1574395638891
109, 13245.06, -5806.27, -22086.63, -21072.02, -24455.76, -21846.68, -23076.37, -16128.66, 0.000, 0.000, 0.000, 23:07:18.899, 1574395638899
110, 13263.39, -5768.74, -22072.17, -21485.19, -24441.83, -21822.59, -23047.04, -16135.59, 0.000, 0.000, 0.000, 23:07:18.899, 1574395638899
111, 13258.90, -5808.12, -21938.04, -20549.19, -24392.01, -21798.72, -23049.63, -16057.49, 0.000, 0.000, 0.000, 23:07:18.906, 1574395638906
112, 13237.95, -5860.36, -21935.44, -20014.33, -24401.87, -21824.67, -23083.25, -16043.32, 0.000, 0.000, 0.000, 23:07:18.906, 1574395638906
113, 13249.93, -5824.06, -22063.32, -20880.57, -24448.72, -21843.91, -23079.99, -16112.95, 0.010, 0.846, 0.538, 23:07:18.915, 1574395638915
114, 13267.53, -5771.24, -22087.86, -21536.71, -24447.35, -21820.64, -23048.22, -16135.86, 0.000, 0.000, 0.000, 23:07:18.916, 1574395638916
115, 13260.13, -5807.63, -21963.20, -20756.41, -24398.76, -21797.24, -23047.58, -16067.08, 0.000, 0.000, 0.000, 23:07:18.925, 1574395638925
116, 13242.51, -5858.77, -21919.33, -19982.08, -24385.82, -21808.71, -23071.38, -16024.61, 0.000, 0.000, 0.000, 23:07:18.925, 1574395638925
117, 13240.28, -5841.87, -22042.22, -20662.00, -24441.47, -21841.16, -23081.77, -16092.12, 0.000, 0.000, 0.000, 23:07:18.929, 1574395638929
118, 13258.21, -5783.96, -22102.90, -21519.86, -24460.99, -21833.23, -23056.56, -16140.91, 0.000, 0.000, 0.000, 23:07:18.929, 1574395638929
119, 13267.41, -5787.09, -21983.70, -20949.31, -24403.10, -21791.59, -23036.24, -16071.40, 0.000, 0.000, 0.000, 23:07:18.937, 1574395638937
120, 13248.64, -5850.05, -21913.47, -20013.88, -24390.80, -21798.22, -23068.14, -16021.55, 0.000, 0.000, 0.000, 23:07:18.937, 1574395638937
121, 13248.95, -5840.78, -22010.88, -20456.67, -24439.11, -21829.61, -23084.14, -16074.19, 0.000, 0.000, 0.000, 23:07:18.945, 1574395638945
122, 13272.60, -5776.38, -22094.65, -21446.32, -24463.71, -21824.13, -23059.00, -16136.19, 0.000, 0.000, 0.000, 23:07:18.945, 1574395638945
123, 13276.53, -5773.54, -22003.30, -21126.53, -24418.07, -21789.42, -23039.22, -16089.84, 0.000, 0.000, 0.000, 23:07:18.952, 1574395638952
124, 13257.00, -5827.55, -21905.58, -20092.77, -24382.31, -21784.05, -23057.90, -16018.96, 0.030, 0.856, 0.528, 23:07:18.966, 1574395638966
125, 13241.58, -5846.34, -21990.52, -20272.96, -24426.01, -21821.98, -23084.46, -16061.49, 0.000, 0.000, 0.000, 23:07:18.966, 1574395638966
126, 13258.21, -5787.45, -22097.47, -21332.33, -24464.79, -21830.14, -23067.22, -16137.27, 0.000, 0.000, 0.000, 23:07:18.966, 1574395638966
127, 13273.67, -5763.31, -22025.21, -21298.28, -24433.27, -21799.03, -23044.60, -16111.34, 0.000, 0.000, 0.000, 23:07:18.966, 1574395638966
128, 13248.95, -5832.78, -21919.21, -20249.09, -24406.07, -21798.47, -23075.92, -16045.45, 0.000, 0.000, 0.000, 23:07:18.976, 1574395638976
129, 13224.32, -5865.57, -21982.96, -20159.91, -24446.84, -21843.76, -23117.02, -16077.36, 0.000, 0.000, 0.000, 23:07:18.976, 1574395638976
130, 13253.96, -5801.33, -22093.67, -21199.20, -24478.27, -21848.58, -23088.37, -16148.24, 0.000, 0.000, 0.000, 23:07:18.981, 1574395638981
131, 13280.62, -5754.14, -22047.11, -21433.69, -24443.11, -21804.21, -23045.25, -16130.90, 0.000, 0.000, 0.000, 23:07:18.981, 1574395638981
132, 13265.33, -5801.57, -21918.79, -20417.92, -24401.20, -21780.99, -23057.10, -16046.18, 0.000, 0.000, 0.000, 23:07:18.989, 1574395638989
133, 13240.84, -5849.99, -21943.69, -20042.74, -24425.74, -21810.76, -23090.74, -16044.01, 0.000, 0.000, 0.000, 23:07:18.989, 1574395638989
134, 13265.49, -5789.57, -22062.74, -21001.16, -24465.19, -21829.54, -23074.29, -16121.62, 0.036, 0.866, 0.514, 23:07:18.997, 1574395638997
135, 13283.53, -5744.31, -22058.78, -21503.52, -24453.39, -21803.95, -23039.28, -16135.57, 0.000, 0.000, 0.000, 23:07:18.997, 1574395638997
136, 13267.59, -5794.44, -21931.96, -20617.63, -24411.32, -21785.78, -23050.24, -16062.83, 0.000, 0.000, 0.000, 23:07:19.005, 1574395639005
137, 13247.54, -5846.68, -21916.26, -19988.47, -24421.27, -21816.46, -23091.07, -16045.62, 0.000, 0.000, 0.000, 23:07:19.005, 1574395639005
138, 13240.75, -5824.28, -22049.41, -20805.03, -24482.29, -21856.59, -23106.27, -16136.42, 0.000, 0.000, 0.000, 23:07:19.011, 1574395639011
139, 13258.96, -5769.59, -22079.75, -21544.22, -24485.49, -21836.98, -23072.01, -16171.46, 0.000, 0.000, 0.000, 23:07:19.019, 1574395639019
140, 13249.33, -5801.71, -21964.52, -20838.96, -24438.53, -21804.69, -23069.32, -16094.28, 0.000, 0.000, 0.000, 23:07:19.019, 1574395639019
141, 13243.61, -5845.43, -21897.27, -19990.53, -24414.12, -21795.97, -23082.65, -16023.05, 0.000, 0.000, 0.000, 23:07:19.026, 1574395639026
142, 13249.51, -5823.59, -22012.98, -20582.63, -24460.70, -21829.03, -23090.33, -16093.55, 0.000, 0.000, 0.000, 23:07:19.026, 1574395639026
143, 13267.46, -5770.97, -22095.06, -21505.33, -24487.10, -21837.03, -23071.76, -16172.16, 0.000, 0.000, 0.000, 23:07:19.034, 1574395639034
144, 13281.38, -5774.24, -21980.35, -21028.90, -24437.92, -21797.11, -23053.95, -16102.31, 0.034, 0.876, 0.518, 23:07:19.034, 1574395639034
145, 13258.45, -5827.88, -21891.52, -20045.51, -24408.48, -21786.89, -23067.87, -16011.00, 0.000, 0.000, 0.000, 23:07:19.041, 1574395639041
146, 13248.42, -5831.64, -21994.43, -20390.80, -24454.35, -21826.01, -23085.80, -16067.48, 0.000, 0.000, 0.000, 23:07:19.041, 1574395639041
147, 13273.23, -5769.43, -22086.36, -21409.69, -24489.11, -21840.40, -23068.12, -16160.80, 0.000, 0.000, 0.000, 23:07:19.049, 1574395639049
148, 13281.25, -5756.40, -21997.89, -21195.98, -24445.50, -21800.79, -23043.84, -16111.52, 0.000, 0.000, 0.000, 23:07:19.049, 1574395639049
149, 13265.94, -5814.45, -21884.95, -20156.13, -24400.84, -21777.71, -23054.24, -16005.23, 0.000, 0.000, 0.000, 23:07:19.057, 1574395639057
150, 13248.26, -5842.43, -21963.99, -20239.10, -24446.15, -21826.32, -23088.26, -16047.99, 0.000, 0.000, 0.000, 23:07:19.057, 1574395639057
151, 13263.88, -5786.62, -22085.38, -21288.85, -24488.44, -21856.05, -23074.44, -16155.33, 0.000, 0.000, 0.000, 23:07:19.064, 1574395639064
152, 13277.96, -5758.84, -22026.88, -21345.11, -24450.37, -21813.40, -23039.93, -16129.73, 0.000, 0.000, 0.000, 23:07:19.064, 1574395639064
153, 13261.45, -5816.97, -21907.14, -20321.85, -24410.72, -21783.72, -23056.14, -16025.84, 0.000, 0.000, 0.000, 23:07:19.071, 1574395639071
154, 13243.79, -5852.04, -21949.39, -20125.15, -24440.02, -21816.67, -23089.44, -16035.74, 0.030, 0.866, 0.526, 23:07:19.079, 1574395639079
155, 13254.70, -5804.01, -22081.51, -21124.21, -24491.16, -21860.77, -23083.23, -16156.49, 0.000, 0.000, 0.000, 23:07:19.079, 1574395639079
156, 13280.36, -5756.07, -22052.65, -21456.00, -24466.55, -21824.85, -23040.51, -16151.84, 0.000, 0.000, 0.000, 23:07:19.087, 1574395639087
157, 13263.41, -5807.03, -21926.66, -20515.93, -24415.68, -21783.23, -23047.62, -16040.91, 0.000, 0.000, 0.000, 23:07:19.087, 1574395639087
158, 13242.31, -5852.67, -21935.33, -20059.44, -24429.81, -21804.93, -23083.29, -16018.91, 0.000, 0.000, 0.000, 23:07:19.093, 1574395639093
159, 13253.76, -5811.25, -22068.44, -20936.23, -24487.27, -21852.61, -23084.37, -16129.46, 0.000, 0.000, 0.000, 23:07:19.093, 1574395639093
160, 13280.69, -5750.50, -22081.06, -21513.98, -24484.48, -21841.59, -23050.59, -16171.98, 0.000, 0.000, 0.000, 23:07:19.102, 1574395639102
161, 13273.78, -5781.75, -21949.05, -20713.67, -24429.72, -21791.25, -23044.78, -16060.33, 0.000, 0.000, 0.000, 23:07:19.102, 1574395639102
162, 13249.98, -5845.16, -21916.98, -20025.91, -24425.29, -21793.84, -23075.40, -16000.83, 0.000, 0.000, 0.000, 23:07:19.109, 1574395639109
163, 13258.56, -5818.20, -22040.41, -20737.86, -24477.82, -21848.07, -23086.65, -16106.24, 0.000, 0.000, 0.000, 23:07:19.109, 1574395639109
164, 13268.44, -5766.37, -22103.77, -21532.87, -24501.18, -21867.58, -23070.04, -16193.44, 0.022, 0.852, 0.536, 23:07:19.116, 1574395639116
165, 13264.28, -5789.59, -21988.88, -20927.78, -24450.17, -21813.36, -23056.72, -16095.67, 0.000, 0.000, 0.000, 23:07:19.116, 1574395639116
166, 13245.02, -5849.12, -21922.39, -20064.00, -24426.86, -21793.42, -23080.21, -15998.91, 0.000, 0.000, 0.000, 23:07:19.124, 1574395639124
167, 13247.66, -5838.99, -22034.28, -20547.55, -24475.61, -21841.59, -23093.35, -16079.42, 0.000, 0.000, 0.000, 23:07:19.124, 1574395639124
168, 13270.86, -5773.21, -22122.59, -21475.69, -24500.80, -21868.10, -23068.54, -16185.68, 0.000, 0.000, 0.000, 23:07:19.131, 1574395639131
169, 13274.88, -5769.19, -22025.19, -21106.55, -24455.51, -21814.61, -23046.10, -16112.19, 0.000, 0.000, 0.000, 23:07:19.131, 1574395639131
170, 13249.47, -5832.89, -21931.31, -20124.41, -24426.63, -21773.66, -23068.23, -15987.13, 0.000, 0.000, 0.000, 23:07:19.139, 1574395639139
171, 13241.42, -5841.76, -22019.48, -20356.31, -24464.65, -21823.95, -23093.22, -16042.88, 0.000, 0.000, 0.000, 23:07:19.146, 1574395639146
172, 13272.04, -5772.92, -22123.42, -21362.99, -24503.70, -21872.46, -23076.43, -16177.90, 0.000, 0.000, 0.000, 23:07:19.146, 1574395639146
173, 13294.06, -5747.95, -22045.68, -21258.10, -24466.08, -21824.13, -23050.66, -16133.53, 0.000, 0.000, 0.000, 23:07:19.154, 1574395639154
174, 13256.28, -5825.56, -21936.27, -20244.35, -24422.65, -21773.10, -23069.44, -15988.81, 0.030, 0.842, 0.548, 23:07:19.154, 1574395639154
175, 13240.19, -5859.24, -21991.52, -20213.06, -24453.21, -21807.86, -23091.23, -16004.32, 0.000, 0.000, 0.000, 23:07:19.162, 1574395639162
176, 13272.31, -5792.28, -22109.58, -21220.97, -24500.48, -21864.30, -23071.51, -16148.46, 0.000, 0.000, 0.000, 23:07:19.162, 1574395639162
177, 13286.75, -5754.70, -22065.22, -21383.40, -24472.95, -21830.01, -23042.05, -16142.85, 0.000, 0.000, 0.000, 23:07:19.169, 1574395639169
178, 13256.64, -5816.15, -21941.34, -20400.19, -24430.70, -21766.62, -23059.04, -15989.30, 0.000, 0.000, 0.000, 23:07:19.169, 1574395639169
179, 13236.10, -5857.21, -21972.35, -20098.55, -24454.26, -21786.63, -23091.23, -15970.12, 0.000, 0.000, 0.000, 23:07:19.176, 1574395639176
180, 13254.27, -5802.89, -22115.75, -21048.88, -24514.48, -21865.97, -23094.89, -16137.13, 0.000, 0.000, 0.000, 23:07:19.176, 1574395639176
181, 13291.67, -5748.40, -22100.51, -21469.07, -24491.45, -21847.69, -23056.38, -16176.16, 0.000, 0.000, 0.000, 23:07:19.186, 1574395639186
182, 13279.75, -5793.75, -21965.64, -20573.93, -24438.30, -21763.58, -23059.51, -16018.00, 0.000, 0.000, 0.000, 23:07:19.187, 1574395639187
183, 13254.88, -5843.80, -21955.74, -20025.35, -24449.07, -21754.77, -23091.32, -15945.78, 0.000, 0.000, 0.000, 23:07:19.195, 1574395639195
184, 13275.30, -5797.64, -22079.01, -20833.61, -24498.49, -21829.96, -23085.15, -16088.07, 0.046, 0.842, 0.542, 23:07:19.195, 1574395639195
185, 13303.06, -5736.98, -22115.37, -21497.68, -24503.63, -21853.43, -23054.48, -16180.41, 0.000, 0.000, 0.000, 23:07:19.201, 1574395639201
186, 13294.17, -5768.05, -21990.18, -20764.90, -24459.38, -21766.26, -23052.47, -16031.92, 0.000, 0.000, 0.000, 23:07:19.208, 1574395639208
187, 13265.60, -5832.67, -21944.96, -19993.70, -24456.63, -21731.97, -23089.02, -15919.22, 0.000, 0.000, 0.000, 23:07:19.208, 1574395639208
188, 13265.16, -5815.10, -22074.45, -20633.30, -24513.63, -21827.10, -23108.62, -16067.73, 0.000, 0.000, 0.000, 23:07:19.214, 1574395639214
189, 13299.24, -5740.96, -22135.31, -21489.99, -24525.12, -21875.25, -23077.75, -16206.82, 0.000, 0.000, 0.000, 23:07:19.214, 1574395639214
190, 13303.36, -5749.76, -22013.00, -20958.16, -24467.58, -21784.75, -23055.85, -16075.40, 0.000, 0.000, 0.000, 23:07:19.221, 1574395639221
191, 13266.52, -5830.23, -21938.55, -20024.39, -24451.27, -21723.91, -23090.71, -15917.84, 0.000, 0.000, 0.000, 23:07:19.221, 1574395639221
192, 13265.78, -5825.45, -22042.40, -20432.89, -24497.38, -21798.67, -23104.62, -16024.43, 0.000, 0.000, 0.000, 23:07:19.229, 1574395639229
193, 13287.15, -5761.88, -22148.41, -21441.56, -24533.47, -21888.10, -23085.37, -16215.85, 0.000, 0.000, 0.000, 23:07:19.229, 1574395639229
194, 13288.16, -5762.44, -22051.65, -21165.56, -24495.54, -21825.79, -23070.38, -16136.30, 0.068, 0.848, 0.538, 23:07:19.237, 1574395639237
195, 13266.18, -5818.29, -21935.26, -20116.35, -24455.56, -21717.00, -23086.33, -15925.13, 0.000, 0.000, 0.000, 23:07:19.237, 1574395639237
196, 13262.54, -5832.58, -22011.26, -20253.85, -24496.39, -21772.63, -23106.16, -15981.70, 0.000, 0.000, 0.000, 23:07:19.244, 1574395639244
197, 13284.40, -5771.85, -22131.04, -21330.25, -24538.30, -21884.28, -23089.20, -16201.82, 0.000, 0.000, 0.000, 23:07:19.244, 1574395639244
198, 13296.07, -5747.13, -22065.64, -21331.92, -24510.05, -21830.68, -23067.36, -16168.58, 0.000, 0.000, 0.000, 23:07:19.251, 1574395639251
199, 13270.99, -5811.68, -21932.54, -20238.54, -24466.82, -21697.37, -23080.52, -15935.30, 0.000, 0.000, 0.000, 23:07:19.251, 1574395639251
200, 13264.93, -5829.63, -21962.06, -20079.64, -24484.57, -21720.17, -23102.40, -15934.16, 0.000, 0.000, 0.000, 23:07:19.258, 1574395639258
201, 13289.88, -5763.49, -22101.34, -21149.73, -24538.66, -21864.52, -23097.91, -16177.61, 0.000, 0.000, 0.000, 23:07:19.266, 1574395639266
202, 13316.61, -5722.63, -22068.35, -21440.89, -24518.77, -21853.05, -23068.36, -16208.08, 0.000, 0.000, 0.000, 23:07:19.267, 1574395639267
203, 13289.36, -5786.33, -21934.97, -20396.17, -24472.63, -21715.97, -23082.76, -15980.42, 0.000, 0.000, 0.000, 23:07:19.273, 1574395639273
204, 13270.36, -5829.02, -21952.29, -19947.23, -24489.04, -21708.84, -23116.31, -15922.58, 0.000, 0.000, 0.000, 23:07:19.273, 1574395639273
205, 13287.13, -5779.87, -22101.38, -20952.26, -24549.63, -21864.39, -23115.77, -16160.78, 0.088, 0.858, 0.534, 23:07:19.281, 1574395639281
206, 13301.77, -5733.51, -22118.30, -21547.84, -24549.10, -21898.61, -23087.36, -16258.66, 0.000, 0.000, 0.000, 23:07:19.281, 1574395639281
207, 13297.46, -5766.41, -21966.02, -20598.16, -24485.64, -21737.09, -23076.05, -16019.54, 0.000, 0.000, 0.000, 23:07:19.289, 1574395639289
208, 13276.02, -5821.09, -21929.72, -19853.62, -24477.98, -21675.16, -23102.49, -15883.69, 0.000, 0.000, 0.000, 23:07:19.289, 1574395639289
209, 13289.43, -5783.36, -22072.64, -20707.95, -24537.01, -21826.70, -23110.99, -16102.35, 0.000, 0.000, 0.000, 23:07:19.297, 1574395639297
210, 13320.37, -5713.53, -22127.00, -21575.63, -24550.46, -21906.43, -23081.33, -16262.77, 0.000, 0.000, 0.000, 23:07:19.297, 1574395639297
211, 13305.72, -5747.57, -22001.47, -20818.28, -24502.16, -21767.94, -23078.53, -16071.73, 0.000, 0.000, 0.000, 23:07:19.303, 1574395639303
212, 13283.06, -5811.97, -21926.66, -19822.29, -24478.51, -21657.43, -23100.26, -15874.45, 0.000, 0.000, 0.000, 23:07:19.304, 1574395639304
213, 13290.24, -5793.26, -22049.57, -20471.16, -24532.51, -21787.68, -23111.52, -16047.52, 0.000, 0.000, 0.000, 23:07:19.316, 1574395639316
214, 13312.88, -5727.17, -22133.46, -21580.23, -24560.16, -21917.63, -23086.24, -16267.71, 0.000, 0.000, 0.000, 23:07:19.317, 1574395639317
215, 13309.12, -5739.79, -22020.20, -21066.76, -24512.11, -21799.46, -23069.55, -16119.45, 0.090, 0.862, 0.524, 23:07:19.326, 1574395639326
216, 13279.66, -5813.64, -21917.58, -19863.01, -24481.62, -21651.71, -23092.73, -15876.78, 0.000, 0.000, 0.000, 23:07:19.326, 1574395639326
217, 13279.68, -5805.57, -22016.69, -20228.19, -24526.21, -21751.69, -23107.66, -15992.25, 0.000, 0.000, 0.000, 23:07:19.326, 1574395639326
218, 13309.03, -5731.81, -22123.24, -21504.41, -24559.83, -21913.29, -23084.17, -16252.15, 0.000, 0.000, 0.000, 23:07:19.333, 1574395639333
219, 13310.98, -5732.13, -22038.98, -21305.35, -24522.93, -21832.42, -23063.47, -16170.66, 0.000, 0.000, 0.000, 23:07:19.333, 1574395639333
220, 13285.36, -5803.41, -21909.76, -19965.05, -24483.21, -21654.23, -23084.03, -15899.96, 0.000, 0.000, 0.000, 23:07:19.341, 1574395639341
221, 13282.55, -5814.87, -21977.06, -19986.62, -24515.44, -21714.74, -23107.95, -15948.13, 0.000, 0.000, 0.000, 23:07:19.342, 1574395639342
222, 13313.10, -5743.53, -22115.69, -21360.35, -24566.55, -21911.39, -23095.65, -16233.29, 0.000, 0.000, 0.000, 23:07:19.349, 1574395639349
223, 13325.75, -5720.50, -22068.14, -21519.01, -24542.13, -21875.49, -23075.40, -16223.41, 0.000, 0.000, 0.000, 23:07:19.349, 1574395639349
224, 13287.91, -5798.38, -21932.78, -20137.69, -24497.82, -21674.20, -23093.80, -15937.04, 0.000, 0.000, 0.000, 23:07:19.356, 1574395639356
225, 13273.11, -5829.49, -21965.06, -19781.05, -24520.15, -21682.11, -23121.78, -15907.69, 0.090, 0.860, 0.520, 23:07:19.356, 1574395639356
226, 13298.37, -5764.67, -22120.09, -21146.36, -24573.44, -21891.01, -23117.45, -16197.59, 0.000, 0.000, 0.000, 23:07:19.364, 1574395639364
227, 13319.96, -5718.67, -22104.38, -21693.57, -24557.39, -21902.27, -23084.19, -16254.14, 0.000, 0.000, 0.000, 23:07:19.364, 1574395639364
228, 13306.53, -5770.91, -21951.80, -20363.60, -24494.58, -21681.37, -23082.40, -15964.75, 0.000, 0.000, 0.000, 23:07:19.372, 1574395639372
229, 13282.72, -5822.67, -21948.61, -19617.81, -24496.57, -21632.08, -23114.32, -15861.69, 0.000, 0.000, 0.000, 23:07:19.372, 1574395639372
230, 13309.73, -5764.81, -22091.48, -20867.59, -24549.46, -21836.18, -23114.32, -16127.32, 0.000, 0.000, 0.000, 23:07:19.378, 1574395639378
231, 13334.63, -5706.91, -22113.00, -21801.22, -24552.41, -21914.99, -23086.67, -16266.28, 0.000, 0.000, 0.000, 23:07:19.378, 1574395639378
232, 13318.64, -5749.02, -21967.09, -20644.50, -24498.38, -21713.31, -23084.63, -16012.28, 0.000, 0.000, 0.000, 23:07:19.385, 1574395639385
233, 13290.97, -5812.82, -21918.88, -19526.13, -24489.38, -21600.01, -23115.99, -15832.61, 0.000, 0.000, 0.000, 23:07:19.393, 1574395639393
234, 13306.71, -5775.09, -22047.83, -20549.70, -24530.19, -21783.09, -23120.89, -16057.22, 0.000, 0.000, 0.000, 23:07:19.393, 1574395639393
235, 13335.56, -5708.77, -22113.09, -21833.23, -24542.46, -21921.00, -23096.10, -16268.72, 0.094, 0.864, 0.514, 23:07:19.401, 1574395639401
236, 13325.24, -5738.77, -21985.44, -20957.71, -24489.62, -21748.09, -23086.80, -16064.62, 0.000, 0.000, 0.000, 23:07:19.401, 1574395639401
237, 13274.23, -5832.60, -21916.31, -19556.26, -24484.17, -21607.27, -23133.74, -15841.37, 0.000, 0.000, 0.000, 23:07:19.409, 1574395639409
238, 13283.82, -5810.43, -22027.55, -20268.88, -24529.83, -21760.23, -23142.97, -16011.02, 0.000, 0.000, 0.000, 23:07:19.409, 1574395639409
239, 13340.37, -5713.98, -22107.42, -21797.76, -24540.96, -21924.85, -23098.02, -16254.79, 0.000, 0.000, 0.000, 23:07:19.416, 1574395639416
240, 13336.30, -5727.75, -22006.50, -21272.29, -24494.96, -21795.10, -23084.39, -16113.89, 0.000, 0.000, 0.000, 23:07:19.416, 1574395639416
241, 13291.44, -5812.82, -21905.20, -19643.32, -24465.12, -21599.76, -23118.86, -15838.87, 0.000, 0.000, 0.000, 23:07:19.429, 1574395639429
242, 13298.44, -5803.94, -21986.43, -19959.35, -24500.01, -21699.97, -23133.43, -15935.70, 0.000, 0.000, 0.000, 23:07:19.429, 1574395639429
243, 13346.52, -5715.21, -22096.17, -21646.05, -24530.93, -21908.96, -23102.79, -16222.14, 0.000, 0.000, 0.000, 23:07:19.435, 1574395639435
244, 13349.80, -5706.42, -22021.03, -21556.98, -24499.77, -21834.48, -23084.68, -16162.48, 0.000, 0.000, 0.000, 23:07:19.435, 1574395639435
245, 13313.82, -5792.21, -21891.68, -19833.33, -24461.57, -21608.71, -23111.23, -15864.53, 0.098, 0.852, 0.522, 23:07:19.441, 1574395639441
246, 13303.49, -5809.51, -21956.97, -19700.76, -24492.97, -21658.66, -23140.29, -15890.50, 0.000, 0.000, 0.000, 23:07:19.442, 1574395639442
247, 13339.92, -5733.02, -22100.02, -21436.42, -24542.48, -21896.19, -23125.09, -16198.40, 0.000, 0.000, 0.000, 23:07:19.447, 1574395639447
248, 13350.74, -5706.49, -22068.03, -21814.72, -24526.37, -21885.17, -23103.99, -16217.42, 0.000, 0.000, 0.000, 23:07:19.453, 1574395639453
249, 13320.03, -5776.12, -21927.75, -20115.88, -24478.67, -21641.27, -23118.16, -15910.22, 0.000, 0.000, 0.000, 23:07:19.453, 1574395639453
250, 13307.92, -5810.05, -21950.73, -19507.78, -24489.87, -21619.41, -23143.98, -15850.09, 0.000, 0.000, 0.000, 23:07:19.461, 1574395639461
251, 13333.73, -5747.13, -22107.01, -21144.64, -24544.36, -21863.60, -23136.83, -16150.52, 0.000, 0.000, 0.000, 23:07:19.461, 1574395639461
252, 13351.57, -5701.19, -22108.49, -21979.45, -24537.05, -21915.01, -23105.69, -16247.46, 0.000, 0.000, 0.000, 23:07:19.468, 1574395639468
253, 13329.08, -5755.28, -21954.13, -20431.01, -24478.33, -21672.36, -23107.52, -15956.69, 0.000, 0.000, 0.000, 23:07:19.468, 1574395639468
254, 13302.82, -5813.15, -21937.37, -19374.04, -24480.79, -21591.05, -23142.30, -15822.31, 0.000, 0.000, 0.000, 23:07:19.476, 1574395639476
255, 13334.63, -5750.59, -22069.82, -20781.51, -24522.41, -21803.01, -23124.76, -16073.27, 0.098, 0.848, 0.530, 23:07:19.476, 1574395639476
0, 13361.40, -5688.59, -22108.60, -22044.85, -24524.96, -21915.62, -23090.71, -16246.34, 0.000, 0.000, 0.000, 23:07:19.484, 1574395639484
1, 13328.30, -5747.01, -21973.22, -20798.77, -24488.35, -21716.26, -23101.55, -16014.06, 0.000, 0.000, 0.000, 23:07:19.484, 1574395639484
2, 13303.49, -5811.27, -21905.69, -19349.68, -24476.21, -21569.30, -23129.07, -15802.97, 0.000, 0.000, 0.000, 23:07:19.492, 1574395639492
3, 13324.97, -5769.39, -22032.31, -20426.12, -24521.07, -21764.07, -23133.43, -16021.64, 0.000, 0.000, 0.000, 23:07:19.492, 1574395639492
4, 13330.47, -5722.67, -22142.91, -22057.91, -24566.24, -21965.66, -23131.75, -16289.82, 0.000, 0.000, 0.000, 23:07:19.498, 1574395639498
5, 13327.41, -5744.00, -22022.10, -21185.63, -24521.74, -21782.71, -23118.81, -16098.26, 0.000, 0.000, 0.000, 23:07:19.498, 1574395639498
6, 13307.60, -5806.67, -21913.20, -19429.39, -24480.68, -21562.53, -23130.05, -15809.39, 0.000, 0.000, 0.000, 23:07:19.505, 1574395639505
7, 13313.39, -5794.82, -22027.87, -20081.92, -24526.14, -21719.55, -23144.58, -15965.45, 0.000, 0.000, 0.000, 23:07:19.513, 1574395639513
8, 13349.00, -5713.73, -22138.66, -21913.85, -24552.29, -21943.06, -23119.21, -16251.77, 0.000, 0.000, 0.000, 23:07:19.513, 1574395639513
9, 13328.75, -5733.24, -22057.57, -21506.56, -24522.77, -21834.12, -23118.07, -16145.92, 0.104, 0.842, 0.518, 23:07:19.521, 1574395639521
10, 13303.89, -5802.45, -21924.65, -19608.60, -24479.03, -21589.08, -23134.68, -15832.17, 0.000, 0.000, 0.000, 23:07:19.521, 1574395639521
11, 13309.77, -5806.78, -21995.05, -19777.85, -24509.51, -21679.78, -23152.96, -15912.56, 0.000, 0.000, 0.000, 23:07:19.529, 1574395639529
12, 13338.29, -5740.24, -22135.02, -21714.05, -24565.68, -21941.75, -23142.28, -16240.69, 0.000, 0.000, 0.000, 23:07:19.529, 1574395639529
13, 13345.85, -5717.78, -22063.56, -21790.65, -24518.10, -21871.31, -23106.58, -16189.77, 0.000, 0.000, 0.000, 23:07:19.536, 1574395639536
14, 13311.76, -5785.82, -21914.07, -19864.60, -24469.77, -21607.99, -23118.92, -15861.85, 0.000, 0.000, 0.000, 23:07:19.536, 1574395639536
15, 13305.08, -5808.26, -21957.44, -19523.15, -24496.82, -21634.86, -23142.77, -15858.27, 0.000, 0.000, 0.000, 23:07:19.544, 1574395639544
16, 13336.26, -5747.35, -22103.35, -21408.28, -24549.75, -21901.56, -23131.19, -16182.33, 0.000, 0.000, 0.000, 23:07:19.544, 1574395639544
17, 13352.73, -5706.96, -22075.45, -22004.42, -24526.01, -21904.91, -23098.00, -16225.42, 0.000, 0.000, 0.000, 23:07:19.551, 1574395639551
18, 13326.22, -5770.30, -21925.38, -20193.17, -24467.58, -21641.05, -23104.13, -15909.21, 0.000, 0.000, 0.000, 23:07:19.551, 1574395639551
19, 13303.36, -5821.74, -21947.31, -19348.14, -24491.83, -21602.94, -23141.72, -15825.17, 0.000, 0.000, 0.000, 23:07:19.559, 1574395639559
20, 13336.73, -5754.03, -22081.36, -21045.33, -24538.33, -21855.47, -23127.68, -16120.23, 0.098, 0.858, 0.518, 23:07:19.559, 1574395639559
21, 13368.04, -5694.69, -22089.45, -22128.05, -24533.65, -21926.88, -23093.11, -16247.75, 0.000, 0.000, 0.000, 23:07:19.566, 1574395639566
22, 13342.76, -5752.53, -21954.80, -20568.23, -24494.65, -21688.21, -23105.91, -15971.24, 0.000, 0.000, 0.000, 23:07:19.574, 1574395639574
23, 13315.78, -5813.04, -21936.98, -19265.62, -24490.45, -21577.77, -23137.52, -15799.91, 0.000, 0.000, 0.000, 23:07:19.574, 1574395639574
24, 13340.75, -5764.09, -22056.57, -20663.99, -24528.27, -21808.22, -23131.30, -16057.81, 0.000, 0.000, 0.000, 23:07:19.580, 1574395639580
25, 13360.73, -5702.71, -22119.49, -22167.77, -24551.07, -21964.68, -23108.13, -16269.75, 0.000, 0.000, 0.000, 23:07:19.580, 1574395639580
26, 13348.73, -5734.59, -21977.02, -20953.73, -24496.35, -21741.63, -23096.86, -16029.24, 0.000, 0.000, 0.000, 23:07:19.588, 1574395639588
27, 13322.00, -5799.00, -21904.40, -19279.29, -24477.57, -21561.79, -23125.87, -15788.51, 0.000, 0.000, 0.000, 23:07:19.588, 1574395639588
28, 13332.03, -5776.00, -22057.86, -20276.59, -24534.73, -21764.50, -23141.01, -15998.69, 0.000, 0.000, 0.000, 23:07:19.596, 1574395639596
29, 13359.26, -5711.12, -22152.72, -22090.09, -24566.49, -21970.42, -23114.54, -16270.82, 0.000, 0.000, 0.000, 23:07:19.596, 1574395639596
30, 13349.65, -5725.53, -22012.00, -21325.17, -24508.84, -21801.67, -23097.89, -16099.60, 0.100, 0.856, 0.514, 23:07:19.603, 1574395639603
31, 13310.96, -5806.94, -21920.67, -19418.57, -24490.63, -21582.87, -23134.75, -15818.82, 0.000, 0.000, 0.000, 23:07:19.603, 1574395639603
32, 13328.43, -5791.54, -22015.82, -19925.69, -24520.64, -21715.39, -23139.51, -15943.88, 0.000, 0.000, 0.000, 23:07:19.611, 1574395639611
33, 13363.15, -5721.15, -22139.87, -21919.51, -24566.40, -21970.69, -23122.30, -16262.84, 0.000, 0.000, 0.000, 23:07:19.611, 1574395639611
34, 13359.53, -5716.06, -22067.61, -21671.40, -24540.85, -21870.51, -23111.97, -16176.78, 0.000, 0.000, 0.000, 23:07:19.619, 1574395639619
35, 13332.35, -5778.40, -21937.81, -19652.12, -24498.32, -21610.18, -23130.57, -15853.38, 0.000, 0.000, 0.000, 23:07:19.619, 1574395639619
36, 13323.83, -5791.98, -21967.09, -19626.55, -24516.89, -21669.95, -23142.44, -15893.12, 0.000, 0.000, 0.000, 23:07:19.626, 1574395639626
37, 13338.16, -5742.70, -22134.62, -21662.91, -24573.62, -21961.39, -23138.57, -16239.03, 0.000, 0.000, 0.000, 23:07:19.626, 1574395639626
38, 13340.73, -5727.52, -22119.87, -21961.73, -24565.26, -21954.75, -23130.01, -16252.04, 0.000, 0.000, 0.000, 23:07:19.633, 1574395639633
39, 13338.29, -5767.08, -21930.19, -19946.90, -24489.76, -21628.31, -23118.99, -15894.57, 0.000, 0.000, 0.000, 23:07:19.641, 1574395639641
40, 13328.14, -5799.18, -21947.04, -19384.04, -24504.51, -21627.64, -23142.46, -15853.20, 0.100, 0.856, 0.504, 23:07:19.641, 1574395639641
41, 13348.08, -5748.73, -22109.54, -21308.88, -24563.54, -21907.95, -23135.53, -16181.63, 0.000, 0.000, 0.000, 23:07:19.649, 1574395639649
42, 13362.10, -5708.12, -22114.01, -22135.36, -24556.54, -21954.69, -23108.28, -16263.11, 0.000, 0.000, 0.000, 23:07:19.649, 1574395639649
43, 13337.82, -5762.19, -21966.49, -20344.80, -24501.58, -21698.18, -23120.11, -15955.05, 0.000, 0.000, 0.000, 23:07:19.656, 1574395639656
44, 13313.39, -5811.99, -21953.41, -19272.28, -24511.95, -21609.15, -23153.97, -15832.77, 0.000, 0.000, 0.000, 23:07:19.656, 1574395639656
45, 13345.31, -5750.37, -22089.16, -20916.90, -24558.73, -21851.67, -23141.79, -16122.92, 0.000, 0.000, 0.000, 23:07:19.663, 1574395639663
46, 13375.91, -5692.83, -22129.97, -22226.82, -24565.95, -21967.23, -23108.78, -16289.75, 0.000, 0.000, 0.000, 23:07:19.663, 1574395639663
47, 13342.90, -5743.53, -21981.24, -20733.28, -24520.00, -21726.34, -23114.54, -16016.19, 0.000, 0.000, 0.000, 23:07:19.671, 1574395639671
48, 13318.20, -5809.64, -21928.29, -19227.33, -24498.45, -21586.42, -23143.98, -15811.42, 0.000, 0.000, 0.000, 23:07:19.671, 1574395639671
49, 13335.16, -5778.62, -22060.88, -20537.63, -24550.33, -21826.77, -23148.05, -16064.06, 0.000, 0.000, 0.000, 23:07:19.679, 1574395639679
50, 13349.20, -5728.80, -22134.35, -22227.24, -24569.80, -22003.17, -23118.92, -16299.50, 0.106, 0.862, 0.502, 23:07:19.679, 1574395639679
51, 13324.61, -5772.02, -22018.61, -21141.38, -24530.88, -21812.22, -23121.74, -16091.74, 0.000, 0.000, 0.000, 23:07:19.688, 1574395639688
52, 13285.23, -5842.59, -21927.89, -19292.44, -24513.31, -21584.27, -23155.13, -15825.66, 0.000, 0.000, 0.000, 23:07:19.688, 1574395639688
53, 13283.51, -5831.28, -22050.96, -20153.99, -24568.23, -21770.53, -23172.21, -16012.77, 0.000, 0.000, 0.000, 23:07:19.693, 1574395639693
54, 13306.08, -5776.47, -22157.87, -22129.46, -24590.74, -22016.80, -23138.50, -16301.22, 0.000, 0.000, 0.000, 23:07:19.701, 1574395639701
55, 13287.87, -5802.36, -22073.22, -21533.94, -24557.17, -21854.62, -23126.88, -16153.31, 0.000, 0.000, 0.000, 23:07:19.702, 1574395639702
56, 13236.43, -5893.98, -21935.69, -19459.94, -24509.27, -21594.27, -23151.15, -15839.43, 0.000, 0.000, 0.000, 23:07:19.709, 1574395639709
57, 13230.09, -5907.28, -22012.80, -19797.99, -24545.41, -21717.04, -23165.71, -15945.53, 0.000, 0.000, 0.000, 23:07:19.711, 1574395639711
58, 13237.35, -5856.98, -22151.81, -21888.62, -24594.56, -21983.57, -23141.52, -16267.20, 0.000, 0.000, 0.000, 23:07:19.716, 1574395639716
59, 13209.28, -5863.24, -22098.07, -21842.59, -24579.63, -21906.88, -23126.88, -16209.17, 0.000, 0.000, 0.000, 23:07:19.717, 1574395639717
60, 13174.05, -5934.23, -21919.62, -19739.07, -24506.61, -21610.65, -23128.87, -15860.75, 0.106, 0.874, 0.496, 23:07:19.724, 1574395639724
61, 13151.50, -5979.07, -21976.55, -19517.74, -24526.93, -21663.29, -23152.96, -15884.09, 0.000, 0.000, 0.000, 23:07:19.724, 1574395639724
62, 13175.35, -5923.90, -22133.23, -21584.56, -24576.01, -21950.84, -23134.08, -16217.11, 0.000, 0.000, 0.000, 23:07:19.731, 1574395639731
63, 13179.73, -5901.49, -22107.51, -22100.33, -24559.67, -21944.49, -23111.05, -16248.20, 0.000, 0.000, 0.000, 23:07:19.732, 1574395639732
64, 13144.26, -5971.31, -21958.13, -20113.33, -24512.13, -21668.16, -23133.45, -15926.35, 0.000, 0.000, 0.000, 23:07:19.738, 1574395639738
65, 13147.65, -5997.93, -21973.57, -19338.21, -24527.82, -21653.74, -23163.76, -15858.38, 0.000, 0.000, 0.000, 23:07:19.739, 1574395639739
66, 13174.65, -5949.74, -22136.09, -21239.54, -24591.21, -21940.63, -23159.69, -16188.27, 0.000, 0.000, 0.000, 23:07:19.746, 1574395639746
67, 13199.46, -5890.98, -22127.73, -22262.83, -24573.22, -22003.64, -23126.50, -16301.33, 0.000, 0.000, 0.000, 23:07:19.747, 1574395639747
68, 13185.00, -5930.97, -21971.90, -20501.51, -24519.19, -21710.43, -23126.75, -15985.45, 0.000, 0.000, 0.000, 23:07:19.753, 1574395639753
69, 13175.37, -5972.32, -21951.42, -19230.03, -24516.94, -21616.13, -23156.09, -15830.26, 0.000, 0.000, 0.000, 23:07:19.760, 1574395639760
70, 13200.85, -5922.12, -22082.74, -20810.10, -24570.33, -21870.24, -23151.96, -16114.15, 0.104, 0.882, 0.494, 23:07:19.761, 1574395639761
71, 13233.53, -5853.39, -22134.78, -22297.45, -24584.26, -21997.96, -23123.46, -16311.25, 0.000, 0.000, 0.000, 23:07:19.768, 1574395639768
72, 13223.16, -5878.89, -22006.57, -20902.77, -24549.39, -21764.72, -23132.02, -16058.21, 0.000, 0.000, 0.000, 23:07:19.769, 1574395639769
73, 13198.10, -5940.80, -21929.21, -19230.48, -24523.86, -21601.33, -23164.59, -15833.44, 0.000, 0.000, 0.000, 23:07:19.776, 1574395639776
74, 13227.00, -5906.69, -22059.72, -20403.61, -24576.75, -21816.40, -23168.16, -16059.88, 0.000, 0.000, 0.000, 23:07:19.777, 1574395639777
75, 13263.12, -5830.90, -22162.67, -22249.87, -24600.06, -22022.03, -23140.71, -16324.31, 0.000, 0.000, 0.000, 23:07:19.784, 1574395639784
76, 13261.31, -5839.64, -22048.12, -21315.96, -24562.46, -21831.24, -23136.45, -16131.23, 0.000, 0.000, 0.000, 23:07:19.785, 1574395639785
77, 13247.48, -5891.20, -21933.92, -19334.35, -24531.33, -21599.96, -23164.19, -15840.79, 0.000, 0.000, 0.000, 23:07:19.790, 1574395639790
78, 13258.92, -5879.22, -22042.37, -20019.47, -24578.02, -21768.12, -23179.70, -16004.52, 0.000, 0.000, 0.000, 23:07:19.791, 1574395639791
79, 13293.74, -5803.43, -22150.11, -22079.97, -24606.05, -22015.95, -23142.15, -16303.94, 0.000, 0.000, 0.000, 23:07:19.798, 1574395639798
80, 13281.27, -5809.31, -22066.76, -21682.38, -24582.02, -21881.91, -23132.54, -16188.27, 0.100, 0.878, 0.492, 23:07:19.799, 1574395639799
81, 13260.57, -5868.76, -21936.61, -19559.14, -24543.71, -21609.46, -23154.82, -15856.35, 0.000, 0.000, 0.000, 23:07:19.807, 1574395639807
82, 13286.75, -5858.57, -22001.96, -19678.30, -24553.77, -21692.41, -23154.04, -15912.76, 0.000, 0.000, 0.000, 23:07:19.808, 1574395639808
83, 13310.82, -5798.76, -22154.06, -21811.77, -24600.91, -21971.43, -23138.62, -16261.27, 0.000, 0.000, 0.000, 23:07:19.814, 1574395639814
84, 13304.45, -5789.37, -22130.71, -21991.68, -24601.02, -21947.98, -23138.12, -16257.81, 0.000, 0.000, 0.000, 23:07:19.820, 1574395639820
85, 13288.09, -5842.88, -21968.41, -19884.33, -24544.38, -21670.73, -23148.61, -15903.11, 0.000, 0.000, 0.000, 23:07:19.821, 1574395639821
86, 13295.29, -5852.49, -21966.13, -19417.12, -24536.65, -21639.48, -23148.67, -15855.95, 0.000, 0.000, 0.000, 23:07:19.828, 1574395639828
87, 13317.28, -5798.04, -22144.86, -21469.45, -24602.65, -21935.60, -23146.71, -16207.50, 0.000, 0.000, 0.000, 23:07:19.829, 1574395639829
88, 13325.55, -5767.62, -22138.84, -22200.60, -24600.20, -21972.03, -23132.71, -16284.90, 0.000, 0.000, 0.000, 23:07:19.836, 1574395639836
89, 13309.32, -5816.19, -21974.27, -20248.24, -24547.94, -21682.24, -23141.68, -15953.83, 0.000, 0.000, 0.000, 23:07:19.837, 1574395639837
