%OpenBCI Raw EEG Data
%Number of channels = 8
%Sample Rate = 250.0 Hz
%First Column = SampleIndex
%Last Column = Timestamp 
%Other Columns = EEG data in microvolts followed by Accel Data (in G) interleaved with Aux Data
0, 0.00, 0.00, 0.00, 0.00, 0.00, 0.00, 0.00, 0.00, 0.000, 0.000, 0.000, 23:11:45.934, 1574395905934
1, 15199.10, -1861.01, -20664.70, -20359.80, -23464.32, -19731.65, -21458.37, -13894.25, 0.198, 0.908, 0.408, 23:11:45.947, 1574395905947
2, 15207.52, -1848.36, -20567.40, -19978.66, -23423.31, -19598.32, -21435.37, -13775.60, 0.000, 0.000, 0.000, 23:11:45.952, 1574395905952
3, 15183.85, -1912.17, -20413.67, -18043.51, -23371.07, -19320.76, -21456.02, -13430.02, 0.000, 0.000, 0.000, 23:11:45.952, 1574395905952
4, 15173.55, -1931.12, -20495.03, -18169.46, -23407.57, -19413.52, -21477.95, -13496.59, 0.000, 0.000, 0.000, 23:11:45.959, 1574395905959
5, 15187.63, -1880.70, -20671.72, -20126.22, -23475.61, -19716.99, -21469.43, -13861.03, 0.000, 0.000, 0.000, 23:11:45.959, 1574395905959
6, 15184.01, -1870.86, -20632.43, -20278.64, -23468.44, -19680.58, -21464.22, -13860.25, 0.000, 0.000, 0.000, 23:11:45.965, 1574395905965
7, 15183.96, -1910.94, -20439.42, -18335.45, -23387.77, -19360.48, -21459.51, -13484.65, 0.000, 0.000, 0.000, 23:11:45.965, 1574395905965
8, 15183.38, -1931.26, -20453.68, -17920.38, -23385.62, -19355.02, -21467.89, -13439.59, 0.204, 0.902, 0.408, 23:11:45.972, 1574395905972
9, 15194.49, -1886.51, -20633.92, -19793.10, -23454.69, -19667.52, -21463.66, -13799.01, 0.000, 0.000, 0.000, 23:11:45.972, 1574395905972
10, 15201.78, -1851.62, -20634.55, -20457.93, -23451.27, -19700.47, -21442.86, -13883.43, 0.000, 0.000, 0.000, 23:11:45.979, 1574395905979
11, 15194.29, -1893.06, -20460.88, -18683.58, -23383.95, -19396.22, -21442.32, -13534.45, 0.000, 0.000, 0.000, 23:11:45.979, 1574395905979
12, 15173.95, -1937.45, -20442.59, -17779.96, -23381.64, -19327.64, -21469.72, -13409.71, 0.000, 0.000, 0.000, 23:11:45.988, 1574395905988
13, 15177.84, -1905.42, -20618.43, -19429.83, -23454.47, -19617.72, -21476.38, -13741.20, 0.000, 0.000, 0.000, 23:11:45.988, 1574395905988
14, 15197.96, -1851.28, -20657.37, -20561.21, -23469.38, -19727.98, -21448.76, -13906.09, 0.000, 0.000, 0.000, 23:11:45.995, 1574395905995
15, 15195.86, -1878.98, -20480.95, -19056.52, -23399.08, -19450.76, -21441.83, -13598.22, 0.000, 0.000, 0.000, 23:11:45.995, 1574395905995
16, 15192.55, -1928.02, -20407.21, -17710.74, -23369.26, -19286.92, -21459.78, -13376.51, 0.000, 0.000, 0.000, 23:11:46.002, 1574395906002
17, 15189.91, -1904.30, -20563.43, -19035.73, -23430.93, -19542.93, -21465.97, -13653.58, 0.000, 0.000, 0.000, 23:11:46.008, 1574395906008
18, 15199.97, -1854.50, -20660.77, -20559.42, -23474.20, -19739.65, -21453.36, -13918.86, 0.202, 0.898, 0.404, 23:11:46.008, 1574395906008
19, 15189.93, -1875.87, -20521.31, -19443.83, -23422.84, -19520.16, -21449.83, -13686.64, 0.000, 0.000, 0.000, 23:11:46.016, 1574395906016
20, 15165.88, -1945.59, -20420.49, -17785.51, -23392.26, -19312.96, -21482.55, -13416.32, 0.000, 0.000, 0.000, 23:11:46.016, 1574395906016
21, 15175.90, -1929.34, -20546.13, -18678.57, -23432.65, -19506.17, -21482.28, -13608.68, 0.000, 0.000, 0.000, 23:11:46.024, 1574395906024
22, 15201.73, -1858.97, -20668.17, -20461.32, -23469.53, -19745.51, -21451.57, -13912.22, 0.000, 0.000, 0.000, 23:11:46.024, 1574395906024
23, 15201.89, -1859.98, -20546.46, -19792.18, -23422.06, -19575.52, -21436.13, -13747.42, 0.000, 0.000, 0.000, 23:11:46.031, 1574395906031
24, 15182.91, -1920.75, -20400.75, -17907.95, -23367.18, -19305.13, -21451.46, -13407.98, 0.000, 0.000, 0.000, 23:11:46.031, 1574395906031
25, 15183.72, -1926.07, -20500.62, -18328.38, -23404.67, -19440.81, -21468.85, -13527.59, 0.000, 0.000, 0.000, 23:11:46.039, 1574395906039
26, 15196.82, -1871.04, -20665.80, -20268.25, -23468.30, -19734.00, -21459.98, -13885.66, 0.000, 0.000, 0.000, 23:11:46.040, 1574395906040
27, 15205.42, -1862.32, -20595.57, -20107.32, -23441.86, -19638.26, -21441.76, -13811.19, 0.000, 0.000, 0.000, 23:11:46.048, 1574395906048
28, 15182.67, -1914.83, -20422.92, -18154.13, -23374.29, -19331.62, -21447.08, -13442.72, 0.200, 0.898, 0.400, 23:11:46.048, 1574395906048
29, 15167.94, -1941.87, -20484.21, -18059.65, -23397.49, -19387.37, -21470.82, -13474.21, 0.000, 0.000, 0.000, 23:11:46.055, 1574395906055
30, 15181.21, -1888.88, -20662.80, -19992.76, -23463.29, -19690.97, -21464.18, -13839.69, 0.000, 0.000, 0.000, 23:11:46.055, 1574395906055
31, 15188.88, -1856.47, -20627.22, -20348.13, -23449.30, -19668.89, -21442.23, -13860.16, 0.000, 0.000, 0.000, 23:11:46.062, 1574395906062
32, 15179.07, -1905.58, -20448.52, -18466.27, -23387.59, -19365.84, -21449.34, -13502.93, 0.000, 0.000, 0.000, 23:11:46.069, 1574395906069
33, 15167.54, -1945.23, -20454.68, -17852.92, -23396.46, -19347.65, -21476.90, -13438.58, 0.000, 0.000, 0.000, 23:11:46.069, 1574395906069
34, 15187.38, -1896.72, -20627.08, -19643.00, -23462.16, -19649.06, -21470.66, -13786.53, 0.000, 0.000, 0.000, 23:11:46.076, 1574395906076
35, 15206.58, -1849.32, -20637.79, -20504.55, -23465.24, -19714.15, -21444.46, -13904.59, 0.000, 0.000, 0.000, 23:11:46.076, 1574395906076
36, 15190.65, -1887.47, -20461.43, -18826.07, -23399.24, -19422.39, -21443.17, -13571.73, 0.000, 0.000, 0.000, 23:11:46.084, 1574395906084
37, 15176.36, -1935.68, -20420.98, -17733.38, -23384.24, -19318.68, -21468.38, -13413.66, 0.000, 0.000, 0.000, 23:11:46.084, 1574395906084
38, 15181.33, -1904.68, -20594.07, -19262.51, -23451.94, -19595.26, -21470.46, -13721.33, 0.202, 0.896, 0.408, 23:11:46.092, 1574395906092
39, 15199.39, -1851.42, -20660.92, -20564.74, -23474.72, -19742.67, -21446.77, -13926.59, 0.000, 0.000, 0.000, 23:11:46.092, 1574395906092
40, 15183.63, -1889.10, -20519.66, -19222.10, -23428.34, -19498.59, -21456.09, -13656.56, 0.000, 0.000, 0.000, 23:11:46.098, 1574395906098
41, 15172.52, -1940.87, -20427.91, -17732.17, -23390.29, -19311.82, -21471.13, -13399.94, 0.000, 0.000, 0.000, 23:11:46.098, 1574395906098
42, 15178.11, -1908.37, -20562.31, -18884.92, -23432.50, -19524.18, -21460.85, -13630.16, 0.000, 0.000, 0.000, 23:11:46.106, 1574395906106
43, 15198.67, -1852.04, -20671.72, -20527.10, -23470.47, -19733.17, -21437.94, -13906.12, 0.000, 0.000, 0.000, 23:11:46.106, 1574395906106
44, 15188.77, -1873.68, -20547.11, -19591.10, -23425.95, -19544.74, -21436.78, -13704.48, 0.000, 0.000, 0.000, 23:11:46.114, 1574395906114
45, 15172.99, -1933.40, -20423.32, -17822.14, -23381.47, -19304.46, -21458.48, -13395.44, 0.000, 0.000, 0.000, 23:11:46.114, 1574395906114
46, 15177.19, -1927.53, -20537.68, -18528.75, -23424.34, -19470.29, -21464.58, -13560.62, 0.000, 0.000, 0.000, 23:11:46.121, 1574395906121
47, 15186.00, -1866.53, -20682.29, -20394.71, -23475.41, -19736.32, -21445.85, -13895.90, 0.000, 0.000, 0.000, 23:11:46.128, 1574395906128
48, 15193.33, -1850.70, -20574.11, -19927.90, -23430.84, -19593.11, -21426.98, -13769.81, 0.206, 0.898, 0.412, 23:11:46.128, 1574395906128
49, 15184.12, -1905.55, -20412.66, -17991.07, -23366.54, -19303.19, -21438.36, -13415.70, 0.000, 0.000, 0.000, 23:11:46.136, 1574395906136
50, 15185.28, -1916.21, -20493.11, -18194.32, -23400.11, -19404.46, -21457.83, -13497.91, 0.000, 0.000, 0.000, 23:11:46.136, 1574395906136
51, 15200.95, -1865.79, -20667.85, -20156.94, -23470.87, -19708.11, -21453.03, -13864.00, 0.000, 0.000, 0.000, 23:11:46.144, 1574395906144
52, 15214.50, -1842.10, -20605.65, -20201.82, -23447.78, -19640.97, -21432.28, -13827.93, 0.000, 0.000, 0.000, 23:11:46.145, 1574395906145
53, 15202.02, -1891.49, -20428.82, -18257.89, -23379.54, -19337.05, -21439.97, -13467.15, 0.000, 0.000, 0.000, 23:11:46.151, 1574395906151
54, 15190.56, -1926.07, -20472.72, -17950.30, -23401.85, -19366.06, -21468.18, -13458.01, 0.000, 0.000, 0.000, 23:11:46.152, 1574395906152
55, 15193.24, -1889.82, -20662.20, -19851.72, -23485.36, -19687.19, -21476.27, -13833.99, 0.000, 0.000, 0.000, 23:11:46.160, 1574395906160
56, 15204.39, -1855.95, -20644.92, -20428.62, -23480.73, -19703.78, -21451.77, -13892.95, 0.000, 0.000, 0.000, 23:11:46.160, 1574395906160
57, 15180.99, -1905.84, -20475.85, -18621.75, -23415.55, -19404.62, -21455.44, -13536.44, 0.000, 0.000, 0.000, 23:11:46.167, 1574395906167
58, 15159.02, -1949.88, -20461.88, -17804.39, -23411.87, -19342.28, -21475.53, -13420.50, 0.000, 0.000, 0.000, 23:11:46.167, 1574395906167
59, 15172.34, -1914.29, -20637.86, -19503.88, -23479.86, -19635.78, -21475.09, -13748.83, 0.208, 0.896, 0.410, 23:11:46.174, 1574395906174
60, 15201.98, -1862.46, -20672.93, -20554.44, -23488.11, -19729.41, -21448.20, -13899.03, 0.000, 0.000, 0.000, 23:11:46.174, 1574395906174
61, 15190.42, -1890.51, -20494.67, -18984.07, -23413.70, -19444.14, -21439.90, -13584.07, 0.000, 0.000, 0.000, 23:11:46.180, 1574395906180
62, 15164.72, -1942.93, -20437.81, -17720.35, -23394.74, -19309.47, -21463.62, -13387.82, 0.000, 0.000, 0.000, 23:11:46.180, 1574395906180
63, 15176.01, -1919.61, -20605.54, -19119.50, -23461.31, -19578.32, -21474.13, -13679.87, 0.000, 0.000, 0.000, 23:11:46.188, 1574395906188
64, 15191.65, -1859.26, -20690.29, -20570.06, -23489.04, -19753.71, -21451.73, -13924.15, 0.000, 0.000, 0.000, 23:11:46.196, 1574395906196
65, 15182.85, -1877.14, -20536.11, -19366.02, -23425.79, -19516.22, -21442.65, -13675.33, 0.000, 0.000, 0.000, 23:11:46.197, 1574395906197
66, 15169.37, -1935.97, -20426.88, -17749.07, -23384.93, -19310.99, -21460.45, -13401.46, 0.000, 0.000, 0.000, 23:11:46.203, 1574395906203
67, 15173.82, -1926.81, -20568.30, -18740.28, -23444.03, -19525.23, -21473.48, -13624.37, 0.000, 0.000, 0.000, 23:11:46.204, 1574395906204
68, 15197.11, -1863.80, -20689.40, -20492.68, -23485.13, -19761.87, -21449.47, -13926.97, 0.000, 0.000, 0.000, 23:11:46.211, 1574395906211
69, 15185.51, -1875.56, -20572.34, -19741.71, -23439.74, -19586.39, -21442.52, -13758.42, 0.208, 0.894, 0.412, 23:11:46.211, 1574395906211
70, 15152.94, -1944.74, -20446.97, -17891.12, -23398.28, -19326.97, -21470.21, -13431.14, 0.000, 0.000, 0.000, 23:11:46.219, 1574395906219
71, 15164.72, -1939.42, -20542.19, -18392.49, -23432.16, -19465.51, -21480.09, -13556.40, 0.000, 0.000, 0.000, 23:11:46.219, 1574395906219
72, 15190.00, -1876.09, -20687.28, -20313.18, -23487.79, -19744.55, -21463.64, -13901.87, 0.000, 0.000, 0.000, 23:11:46.226, 1574395906226
73, 15192.23, -1862.86, -20601.76, -20060.27, -23453.64, -19634.02, -21446.34, -13813.13, 0.000, 0.000, 0.000, 23:11:46.226, 1574395906226
74, 15179.70, -1911.57, -20433.72, -18105.63, -23388.78, -19334.37, -21455.33, -13453.65, 0.000, 0.000, 0.000, 23:11:46.234, 1574395906234
75, 15177.68, -1927.17, -20495.70, -18099.21, -23414.37, -19405.76, -21474.64, -13499.31, 0.000, 0.000, 0.000, 23:11:46.234, 1574395906234
76, 15190.56, -1879.54, -20675.92, -20047.01, -23487.46, -19713.30, -21467.80, -13860.90, 0.000, 0.000, 0.000, 23:11:46.241, 1574395906241
77, 15202.05, -1852.94, -20631.35, -20307.68, -23467.25, -19677.76, -21441.49, -13858.89, 0.000, 0.000, 0.000, 23:11:46.241, 1574395906241
78, 15181.30, -1907.48, -20455.24, -18405.23, -23398.99, -19371.23, -21448.93, -13501.55, 0.000, 0.000, 0.000, 23:11:46.249, 1574395906249
79, 15163.38, -1941.43, -20475.58, -17879.27, -23410.86, -19364.01, -21472.83, -13450.63, 0.208, 0.900, 0.414, 23:11:46.256, 1574395906256
80, 15174.58, -1907.70, -20663.45, -19718.80, -23488.71, -19680.98, -21478.28, -13814.92, 0.000, 0.000, 0.000, 23:11:46.256, 1574395906256
81, 15188.30, -1867.44, -20667.70, -20496.24, -23489.43, -19740.19, -21456.51, -13922.41, 0.000, 0.000, 0.000, 23:11:46.263, 1574395906263
82, 15184.41, -1891.70, -20476.25, -18759.97, -23402.54, -19425.32, -21440.20, -13566.37, 0.000, 0.000, 0.000, 23:11:46.263, 1574395906263
83, 15165.28, -1941.16, -20448.52, -17749.41, -23394.47, -19333.56, -21464.58, -13417.91, 0.000, 0.000, 0.000, 23:11:46.271, 1574395906271
84, 15188.01, -1901.93, -20612.76, -19335.13, -23459.43, -19612.07, -21461.09, -13729.69, 0.000, 0.000, 0.000, 23:11:46.271, 1574395906271
85, 15205.78, -1857.47, -20672.37, -20569.13, -23487.21, -19749.80, -21443.17, -13927.51, 0.000, 0.000, 0.000, 23:11:46.279, 1574395906279
86, 15185.86, -1882.75, -20505.45, -19143.44, -23417.90, -19479.70, -21435.08, -13630.79, 0.000, 0.000, 0.000, 23:11:46.279, 1574395906279
87, 15172.16, -1939.82, -20428.13, -17717.24, -23389.58, -19312.00, -21458.46, -13399.74, 0.000, 0.000, 0.000, 23:11:46.286, 1574395906286
88, 15183.45, -1915.37, -20584.39, -18955.20, -23452.32, -19559.45, -21472.25, -13666.44, 0.000, 0.000, 0.000, 23:11:46.286, 1574395906286
89, 15198.67, -1856.92, -20686.40, -20553.95, -23494.34, -19763.61, -21457.54, -13939.29, 0.206, 0.900, 0.408, 23:11:46.295, 1574395906295
90, 15212.22, -1861.23, -20532.22, -19523.87, -23429.81, -19537.32, -21437.20, -13702.04, 0.000, 0.000, 0.000, 23:11:46.295, 1574395906295
91, 15183.54, -1921.24, -20410.05, -17791.96, -23382.18, -19304.15, -21458.21, -13400.59, 0.000, 0.000, 0.000, 23:11:46.302, 1574395906302
92, 15171.74, -1925.56, -20547.69, -18592.09, -23441.32, -19501.70, -21485.84, -13597.77, 0.000, 0.000, 0.000, 23:11:46.302, 1574395906302
93, 15201.11, -1861.21, -20683.05, -20431.88, -23490.28, -19756.77, -21469.23, -13923.01, 0.000, 0.000, 0.000, 23:11:46.309, 1574395906309
94, 15206.76, -1853.56, -20574.80, -19876.89, -23442.38, -19595.71, -21451.48, -13773.37, 0.000, 0.000, 0.000, 23:11:46.316, 1574395906316
95, 15178.49, -1919.28, -20432.11, -17974.85, -23391.01, -19326.64, -21476.54, -13436.62, 0.000, 0.000, 0.000, 23:11:46.317, 1574395906317
96, 15181.57, -1921.83, -20511.50, -18272.80, -23420.63, -19440.12, -21491.69, -13528.88, 0.000, 0.000, 0.000, 23:11:46.323, 1574395906323
97, 15201.98, -1858.26, -20663.65, -20205.35, -23471.32, -19716.70, -21469.25, -13871.18, 0.000, 0.000, 0.000, 23:11:46.323, 1574395906323
98, 15201.82, -1848.47, -20604.29, -20171.15, -23446.64, -19640.34, -21452.67, -13816.55, 0.000, 0.000, 0.000, 23:11:46.331, 1574395906331
99, 15188.10, -1905.71, -20432.44, -18225.99, -23382.32, -19335.73, -21465.03, -13448.75, 0.204, 0.898, 0.406, 23:11:46.331, 1574395906331
100, 15179.47, -1935.84, -20474.13, -18000.35, -23401.34, -19374.83, -21490.93, -13452.75, 0.000, 0.000, 0.000, 23:11:46.338, 1574395906338
101, 15189.26, -1883.94, -20646.64, -19915.65, -23464.62, -19679.73, -21484.29, -13813.62, 0.000, 0.000, 0.000, 23:11:46.339, 1574395906339
102, 15203.97, -1850.01, -20627.89, -20402.47, -23453.55, -19680.13, -21462.70, -13856.11, 0.000, 0.000, 0.000, 23:11:46.347, 1574395906347
103, 15186.20, -1896.66, -20446.03, -18563.68, -23378.36, -19372.84, -21462.46, -13499.83, 0.000, 0.000, 0.000, 23:11:46.347, 1574395906347
104, 15173.68, -1940.38, -20440.71, -17830.92, -23374.92, -19330.97, -21485.37, -13408.63, 0.000, 0.000, 0.000, 23:11:46.355, 1574395906355
105, 15199.63, -1884.41, -20607.19, -19570.00, -23434.17, -19617.21, -21473.14, -13736.51, 0.000, 0.000, 0.000, 23:11:46.355, 1574395906355
106, 15208.77, -1842.14, -20633.07, -20532.76, -23441.77, -19701.52, -21450.19, -13874.17, 0.000, 0.000, 0.000, 23:11:46.362, 1574395906362
107, 15175.96, -1898.04, -20481.57, -18937.76, -23394.03, -19438.33, -21467.53, -13573.54, 0.000, 0.000, 0.000, 23:11:46.362, 1574395906362
108, 15177.62, -1934.01, -20416.46, -17731.08, -23364.63, -19298.52, -21480.72, -13380.02, 0.000, 0.000, 0.000, 23:11:46.368, 1574395906368
109, 15203.28, -1895.92, -20570.40, -19174.53, -23418.84, -19552.90, -21474.46, -13665.52, 0.206, 0.898, 0.408, 23:11:46.376, 1574395906376
110, 15209.53, -1841.83, -20644.07, -20571.63, -23444.28, -19712.40, -21450.39, -13884.81, 0.000, 0.000, 0.000, 23:11:46.376, 1574395906376
111, 15203.41, -1864.60, -20490.27, -19300.42, -23384.46, -19463.47, -21444.06, -13614.78, 0.000, 0.000, 0.000, 23:11:46.384, 1574395906384
112, 15188.66, -1924.06, -20399.30, -17735.66, -23351.72, -19273.24, -21473.81, -13362.52, 0.000, 0.000, 0.000, 23:11:46.385, 1574395906385
113, 15189.89, -1912.68, -20544.09, -18799.02, -23410.90, -19496.13, -21489.21, -13596.28, 0.000, 0.000, 0.000, 23:11:46.390, 1574395906390
114, 15207.08, -1847.39, -20658.35, -20510.23, -23451.88, -19719.74, -21464.25, -13882.87, 0.000, 0.000, 0.000, 23:11:46.391, 1574395906391
115, 15207.70, -1848.13, -20526.66, -19672.37, -23400.60, -19526.17, -21452.18, -13690.87, 0.000, 0.000, 0.000, 23:11:46.399, 1574395906399
116, 15186.47, -1913.35, -20398.76, -17851.27, -23353.86, -19272.72, -21472.45, -13370.43, 0.000, 0.000, 0.000, 23:11:46.399, 1574395906399
117, 15189.15, -1914.83, -20511.32, -18438.45, -23395.44, -19429.74, -21485.14, -13516.90, 0.000, 0.000, 0.000, 23:11:46.406, 1574395906406
118, 15213.33, -1848.40, -20658.35, -20330.61, -23445.21, -19699.13, -21462.39, -13852.65, 0.000, 0.000, 0.000, 23:11:46.406, 1574395906406
119, 15206.50, -1845.52, -20570.06, -19993.50, -23413.90, -19588.69, -21450.88, -13756.11, 0.214, 0.902, 0.412, 23:11:46.413, 1574395906413
120, 15186.40, -1906.74, -20407.54, -18053.77, -23353.53, -19293.71, -21467.22, -13404.45, 0.000, 0.000, 0.000, 23:11:46.413, 1574395906413
121, 15181.97, -1922.18, -20479.47, -18140.74, -23377.60, -19374.65, -21481.43, -13460.76, 0.000, 0.000, 0.000, 23:11:46.421, 1574395906421
122, 15191.61, -1871.67, -20651.00, -20089.14, -23445.91, -19681.85, -21474.06, -13823.46, 0.000, 0.000, 0.000, 23:11:46.421, 1574395906421
123, 15203.63, -1844.82, -20598.76, -20260.38, -23420.65, -19629.55, -21449.89, -13807.83, 0.000, 0.000, 0.000, 23:11:46.428, 1574395906428
124, 15185.84, -1899.43, -20427.41, -18347.99, -23356.99, -19327.02, -21460.89, -13448.62, 0.000, 0.000, 0.000, 23:11:46.428, 1574395906428
125, 15162.26, -1946.32, -20467.31, -17925.07, -23383.08, -19348.92, -21495.89, -13424.55, 0.000, 0.000, 0.000, 23:11:46.436, 1574395906436
126, 15189.15, -1890.82, -20636.25, -19773.11, -23444.28, -19647.72, -21483.02, -13772.63, 0.000, 0.000, 0.000, 23:11:46.445, 1574395906445
127, 15212.40, -1836.67, -20618.37, -20446.30, -23429.59, -19670.18, -21448.44, -13845.39, 0.000, 0.000, 0.000, 23:11:46.445, 1574395906445
128, 15197.35, -1881.06, -20441.43, -18692.49, -23364.90, -19372.08, -21454.23, -13505.75, 0.000, 0.000, 0.000, 23:11:46.451, 1574395906451
129, 15180.46, -1929.20, -20420.73, -17771.76, -23363.14, -19303.55, -21484.96, -13383.87, 0.000, 0.000, 0.000, 23:11:46.451, 1574395906451
130, 15189.06, -1896.68, -20596.35, -19409.61, -23433.61, -19597.27, -21488.79, -13711.43, 0.212, 0.904, 0.418, 23:11:46.459, 1574395906459
131, 15208.37, -1840.69, -20635.78, -20554.98, -23444.05, -19706.44, -21457.43, -13876.16, 0.000, 0.000, 0.000, 23:11:46.459, 1574395906459
132, 15201.93, -1866.75, -20465.55, -19071.29, -23378.22, -19433.37, -21451.55, -13576.63, 0.000, 0.000, 0.000, 23:11:46.467, 1574395906467
133, 15179.05, -1924.84, -20403.30, -17715.10, -23358.85, -19283.16, -21481.10, -13364.87, 0.000, 0.000, 0.000, 23:11:46.467, 1574395906467
134, 15187.88, -1907.79, -20562.80, -19012.75, -23423.20, -19537.99, -21492.23, -13638.41, 0.000, 0.000, 0.000, 23:11:46.473, 1574395906473
135, 15213.13, -1845.96, -20652.54, -20550.80, -23451.49, -19724.41, -21466.32, -13893.89, 0.000, 0.000, 0.000, 23:11:46.473, 1574395906473
136, 15202.65, -1858.93, -20511.23, -19456.46, -23396.38, -19498.14, -21457.41, -13656.27, 0.000, 0.000, 0.000, 23:11:46.481, 1574395906481
137, 15191.68, -1919.88, -20397.69, -17767.63, -23356.48, -19277.26, -21480.45, -13366.54, 0.000, 0.000, 0.000, 23:11:46.481, 1574395906481
138, 15189.60, -1914.47, -20536.80, -18646.52, -23411.04, -19477.38, -21495.49, -13569.10, 0.000, 0.000, 0.000, 23:11:46.489, 1574395906489
139, 15200.59, -1857.52, -20668.48, -20451.26, -23461.96, -19730.35, -21479.11, -13887.32, 0.000, 0.000, 0.000, 23:11:46.490, 1574395906490
140, 15209.40, -1849.23, -20539.60, -19803.35, -23409.88, -19554.24, -21453.14, -13719.30, 0.210, 0.900, 0.412, 23:11:46.495, 1574395906495
141, 15192.91, -1911.52, -20391.21, -17917.52, -23359.85, -19289.17, -21475.24, -13387.60, 0.000, 0.000, 0.000, 23:11:46.503, 1574395906503
142, 15190.54, -1920.53, -20483.25, -18309.83, -23394.25, -19417.94, -21490.24, -13501.93, 0.000, 0.000, 0.000, 23:11:46.504, 1574395906504
143, 15200.73, -1868.02, -20651.69, -20253.59, -23459.16, -19713.66, -21482.51, -13860.96, 0.000, 0.000, 0.000, 23:11:46.511, 1574395906511
144, 15201.91, -1860.13, -20585.04, -20134.99, -23437.01, -19634.44, -21470.82, -13802.04, 0.000, 0.000, 0.000, 23:11:46.511, 1574395906511
145, 15190.09, -1908.59, -20409.33, -18180.84, -23363.74, -19324.11, -21476.58, -13440.37, 0.000, 0.000, 0.000, 23:11:46.518, 1574395906518
146, 15183.29, -1931.08, -20458.53, -18036.34, -23380.33, -19369.02, -21493.79, -13452.71, 0.000, 0.000, 0.000, 23:11:46.518, 1574395906518
147, 15203.57, -1876.67, -20635.15, -19963.95, -23446.02, -19673.13, -21481.21, -13808.82, 0.000, 0.000, 0.000, 23:11:46.526, 1574395906526
148, 15214.52, -1844.94, -20604.02, -20359.96, -23432.94, -19664.55, -21457.47, -13839.62, 0.000, 0.000, 0.000, 23:11:46.526, 1574395906526
149, 15192.57, -1896.14, -20425.78, -18487.71, -23367.38, -19355.72, -21464.36, -13484.38, 0.000, 0.000, 0.000, 23:11:46.534, 1574395906534
150, 15187.76, -1926.47, -20422.27, -17831.51, -23366.63, -19319.53, -21481.30, -13402.89, 0.210, 0.896, 0.416, 23:11:46.534, 1574395906534
151, 15197.53, -1886.26, -20603.48, -19614.59, -23438.40, -19625.79, -21483.22, -13753.61, 0.000, 0.000, 0.000, 23:11:46.543, 1574395906543
152, 15213.36, -1842.66, -20624.80, -20503.59, -23442.53, -19694.81, -21457.43, -13875.09, 0.000, 0.000, 0.000, 23:11:46.543, 1574395906543
153, 15206.70, -1872.14, -20445.99, -18846.03, -23372.91, -19401.47, -21453.54, -13545.78, 0.000, 0.000, 0.000, 23:11:46.549, 1574395906549
154, 15192.21, -1920.95, -20402.34, -17727.19, -23364.99, -19291.28, -21482.04, -13379.46, 0.000, 0.000, 0.000, 23:11:46.549, 1574395906549
155, 15199.81, -1894.47, -20577.93, -19234.44, -23433.28, -19575.63, -21490.60, -13692.59, 0.000, 0.000, 0.000, 23:11:46.555, 1574395906555
156, 15210.09, -1845.27, -20653.57, -20569.24, -23460.64, -19734.98, -21474.21, -13914.45, 0.000, 0.000, 0.000, 23:11:46.563, 1574395906563
157, 15209.11, -1864.83, -20491.16, -19231.48, -23392.42, -19470.63, -21458.61, -13628.95, 0.000, 0.000, 0.000, 23:11:46.563, 1574395906563
158, 15191.59, -1923.05, -20402.61, -17718.52, -23359.00, -19278.92, -21476.85, -13373.74, 0.000, 0.000, 0.000, 23:11:46.571, 1574395906571
159, 15193.89, -1908.06, -20551.47, -18853.45, -23418.93, -19506.57, -21487.07, -13609.57, 0.000, 0.000, 0.000, 23:11:46.571, 1574395906571
160, 15210.38, -1849.54, -20658.51, -20515.75, -23454.80, -19722.87, -21460.49, -13890.04, 0.212, 0.898, 0.410, 23:11:46.578, 1574395906578
161, 15215.41, -1855.80, -20517.65, -19596.94, -23398.88, -19520.56, -21445.56, -13681.73, 0.000, 0.000, 0.000, 23:11:46.578, 1574395906578
162, 15197.26, -1912.08, -20388.28, -17807.68, -23350.40, -19269.13, -21463.62, -13369.11, 0.000, 0.000, 0.000, 23:11:46.586, 1574395906586
163, 15184.03, -1921.00, -20508.73, -18493.97, -23397.74, -19444.47, -21480.96, -13540.31, 0.000, 0.000, 0.000, 23:11:46.586, 1574395906586
164, 15202.90, -1867.38, -20663.23, -20376.90, -23458.63, -19718.46, -21469.70, -13879.16, 0.000, 0.000, 0.000, 23:11:46.595, 1574395906595
165, 15209.02, -1854.50, -20560.21, -19945.78, -23418.35, -19582.43, -21452.40, -13759.62, 0.000, 0.000, 0.000, 23:11:46.595, 1574395906595
166, 15172.10, -1926.07, -20415.90, -18017.34, -23370.25, -19308.60, -21477.28, -13421.57, 0.000, 0.000, 0.000, 23:11:46.602, 1574395906602
167, 15169.75, -1935.30, -20491.70, -18194.12, -23399.50, -19405.98, -21491.60, -13491.78, 0.000, 0.000, 0.000, 23:11:46.602, 1574395906602
168, 15206.85, -1858.39, -20635.15, -20126.38, -23442.98, -19682.88, -21458.19, -13827.17, 0.000, 0.000, 0.000, 23:11:46.608, 1574395906608
169, 15209.53, -1841.43, -20578.74, -20213.58, -23423.33, -19626.42, -21439.57, -13799.65, 0.000, 0.000, 0.000, 23:11:46.608, 1574395906608
170, 15188.64, -1902.71, -20408.57, -18285.71, -23359.94, -19328.89, -21452.24, -13442.09, 0.214, 0.898, 0.412, 23:11:46.615, 1574395906615
171, 15181.75, -1932.58, -20442.26, -17939.38, -23369.69, -19344.23, -21473.12, -13421.19, 0.000, 0.000, 0.000, 23:11:46.624, 1574395906624
172, 15190.45, -1891.83, -20620.38, -19820.77, -23434.51, -19647.56, -21464.18, -13775.51, 0.000, 0.000, 0.000, 23:11:46.624, 1574395906624
173, 15199.48, -1853.76, -20606.65, -20425.34, -23429.97, -19665.82, -21438.70, -13840.87, 0.000, 0.000, 0.000, 23:11:46.630, 1574395906630
174, 15179.27, -1905.60, -20427.44, -18627.79, -23364.12, -19366.94, -21443.08, -13492.65, 0.000, 0.000, 0.000, 23:11:46.631, 1574395906631
175, 15152.54, -1959.51, -20416.46, -17775.43, -23360.86, -19308.29, -21469.83, -13380.80, 0.000, 0.000, 0.000, 23:11:46.644, 1574395906644
176, 15146.95, -1928.42, -20595.81, -19462.24, -23429.37, -19600.04, -21471.82, -13717.24, 0.000, 0.000, 0.000, 23:11:46.644, 1574395906644
177, 15138.30, -1904.79, -20635.40, -20540.80, -23438.93, -19701.10, -21443.90, -13873.86, 0.000, 0.000, 0.000, 23:11:46.648, 1574395906648
178, 15120.17, -1952.85, -20467.74, -19006.04, -23372.93, -19424.29, -21444.40, -13568.16, 0.000, 0.000, 0.000, 23:11:46.649, 1574395906649
179, 15088.57, -2020.28, -20407.34, -17715.93, -23354.40, -19283.68, -21470.44, -13366.28, 0.000, 0.000, 0.000, 23:11:46.654, 1574395906654
180, 15068.79, -2017.54, -20571.38, -19086.18, -23419.46, -19547.09, -21479.29, -13650.14, 0.206, 0.894, 0.408, 23:11:46.655, 1574395906655
181, 15060.47, -1980.14, -20661.86, -20566.55, -23447.09, -19724.77, -21454.41, -13891.54, 0.000, 0.000, 0.000, 23:11:46.661, 1574395906661
182, 15034.92, -2015.77, -20505.58, -19393.07, -23382.09, -19482.03, -21438.16, -13635.12, 0.000, 0.000, 0.000, 23:11:46.662, 1574395906662
183, 15005.55, -2089.55, -20402.09, -17753.32, -23344.92, -19271.43, -21462.84, -13362.01, 0.000, 0.000, 0.000, 23:11:46.669, 1574395906669
184, 14984.79, -2101.60, -20548.09, -18719.43, -23405.40, -19497.02, -21486.37, -13590.06, 0.000, 0.000, 0.000, 23:11:46.670, 1574395906670
185, 14994.06, -2055.29, -20674.11, -20493.55, -23452.66, -19737.62, -21461.16, -13890.02, 0.000, 0.000, 0.000, 23:11:46.676, 1574395906676
186, 14991.49, -2069.21, -20557.70, -19780.18, -23406.46, -19566.25, -21447.82, -13719.77, 0.000, 0.000, 0.000, 23:11:46.677, 1574395906677
187, 14962.88, -2126.19, -20410.14, -17910.38, -23354.71, -19297.29, -21464.18, -13387.71, 0.000, 0.000, 0.000, 23:11:46.682, 1574395906682
188, 14958.82, -2133.90, -20515.35, -18386.21, -23399.08, -19446.22, -21487.09, -13525.29, 0.000, 0.000, 0.000, 23:11:46.699, 1574395906699
189, 14989.79, -2072.39, -20672.35, -20315.14, -23457.33, -19736.16, -21473.66, -13877.24, 0.000, 0.000, 0.000, 23:11:46.699, 1574395906699
190, 15016.26, -2039.71, -20576.19, -20083.91, -23408.36, -19608.67, -21438.21, -13778.33, 0.208, 0.900, 0.410, 23:11:46.699, 1574395906699
191, 15004.30, -2086.78, -20413.00, -18131.38, -23346.82, -19308.76, -21448.20, -13412.97, 0.000, 0.000, 0.000, 23:11:46.699, 1574395906699
192, 14995.94, -2108.13, -20482.31, -18092.82, -23379.90, -19382.74, -21475.82, -13456.13, 0.000, 0.000, 0.000, 23:11:46.706, 1574395906706
193, 15026.36, -2045.01, -20642.80, -20032.44, -23441.48, -19683.86, -21462.12, -13813.85, 0.000, 0.000, 0.000, 23:11:46.707, 1574395906707
194, 15040.85, -2011.68, -20608.24, -20339.88, -23425.21, -19660.10, -21443.19, -13828.96, 0.000, 0.000, 0.000, 23:11:46.713, 1574395906713
195, 15033.09, -2056.65, -20429.36, -18441.84, -23355.05, -19348.99, -21446.25, -13469.29, 0.000, 0.000, 0.000, 23:11:46.714, 1574395906714
196, 15035.21, -2087.18, -20446.10, -17879.07, -23362.58, -19334.75, -21469.23, -13406.44, 0.000, 0.000, 0.000, 23:11:46.721, 1574395906721
197, 15063.11, -2024.67, -20620.47, -19692.04, -23427.55, -19636.05, -21464.42, -13753.70, 0.000, 0.000, 0.000, 23:11:46.721, 1574395906721
198, 15082.24, -1977.44, -20636.63, -20511.61, -23434.22, -19696.78, -21447.04, -13869.86, 0.000, 0.000, 0.000, 23:11:46.728, 1574395906728
199, 15072.00, -2018.59, -20467.85, -18807.29, -23374.60, -19404.98, -21455.97, -13539.66, 0.000, 0.000, 0.000, 23:11:46.729, 1574395906729
200, 15047.60, -2066.37, -20442.88, -17763.06, -23373.71, -19313.22, -21492.41, -13396.90, 0.000, 0.000, 0.000, 23:11:46.740, 1574395906740
201, 15082.13, -2012.24, -20604.96, -19309.27, -23428.31, -19584.24, -21483.63, -13701.44, 0.210, 0.898, 0.416, 23:11:46.740, 1574395906740
202, 15109.40, -1954.88, -20663.74, -20570.53, -23448.81, -19719.13, -21457.09, -13895.77, 0.000, 0.000, 0.000, 23:11:46.743, 1574395906743
203, 15104.71, -1972.05, -20493.06, -19173.48, -23380.53, -19451.81, -21444.20, -13602.87, 0.000, 0.000, 0.000, 23:11:46.751, 1574395906751
204, 15087.27, -2032.24, -20414.43, -17720.39, -23353.04, -19276.17, -21470.75, -13366.54, 0.000, 0.000, 0.000, 23:11:46.751, 1574395906751
205, 15102.47, -2008.51, -20562.75, -18926.54, -23411.93, -19516.69, -21479.71, -13623.01, 0.000, 0.000, 0.000, 23:11:46.758, 1574395906758
206, 15125.72, -1945.43, -20662.51, -20536.60, -23449.73, -19721.61, -21455.60, -13896.12, 0.000, 0.000, 0.000, 23:11:46.758, 1574395906758
207, 15123.44, -1956.14, -20522.01, -19548.14, -23396.11, -19507.02, -21441.40, -13672.03, 0.000, 0.000, 0.000, 23:11:46.767, 1574395906767
208, 15102.72, -2015.39, -20400.95, -17801.29, -23349.08, -19270.58, -21460.38, -13367.71, 0.000, 0.000, 0.000, 23:11:46.767, 1574395906767
209, 15111.92, -2001.38, -20515.23, -18557.33, -23391.68, -19452.50, -21468.38, -13544.84, 0.000, 0.000, 0.000, 23:11:46.775, 1574395906775
210, 15129.20, -1949.32, -20659.47, -20412.55, -23446.33, -19721.35, -21453.92, -13878.69, 0.000, 0.000, 0.000, 23:11:46.775, 1574395906775
211, 15135.08, -1944.51, -20557.99, -19902.35, -23407.91, -19579.55, -21444.58, -13754.75, 0.202, 0.900, 0.410, 23:11:46.781, 1574395906781
212, 15107.72, -2012.15, -20417.36, -17996.66, -23365.71, -19306.59, -21476.90, -13424.70, 0.000, 0.000, 0.000, 23:11:46.781, 1574395906781
213, 15109.98, -2019.79, -20504.57, -18250.91, -23398.90, -19412.53, -21493.10, -13508.30, 0.000, 0.000, 0.000, 23:11:46.789, 1574395906789
214, 15151.33, -1941.29, -20655.04, -20186.44, -23445.01, -19698.61, -21463.42, -13852.09, 0.000, 0.000, 0.000, 23:11:46.789, 1574395906789
215, 15164.29, -1911.88, -20581.84, -20183.67, -23414.05, -19619.51, -21440.40, -13806.81, 0.000, 0.000, 0.000, 23:11:46.797, 1574395906797
216, 15143.78, -1966.33, -20415.68, -18244.59, -23351.38, -19322.57, -21455.46, -13450.77, 0.000, 0.000, 0.000, 23:11:46.797, 1574395906797
217, 15135.10, -1995.65, -20463.65, -17988.35, -23374.69, -19359.61, -21479.33, -13446.50, 0.000, 0.000, 0.000, 23:11:46.803, 1574395906803
218, 15153.97, -1942.30, -20642.33, -19891.60, -23443.51, -19670.79, -21473.37, -13811.14, 0.000, 0.000, 0.000, 23:11:46.810, 1574395906810
219, 15172.10, -1906.47, -20628.11, -20412.44, -23433.95, -19676.60, -21448.09, -13862.35, 0.000, 0.000, 0.000, 23:11:46.810, 1574395906810
220, 15176.30, -1941.74, -20442.84, -18581.52, -23360.30, -19371.50, -21447.41, -13509.95, 0.000, 0.000, 0.000, 23:11:46.817, 1574395906817
221, 15151.82, -1984.48, -20442.48, -17810.32, -23368.66, -19332.52, -21481.19, -13418.58, 0.208, 0.896, 0.410, 23:11:46.818, 1574395906818
222, 15156.92, -1949.52, -20631.46, -19544.48, -23444.45, -19639.43, -21489.28, -13767.02, 0.000, 0.000, 0.000, 23:11:46.826, 1574395906826
223, 15179.76, -1889.19, -20653.59, -20547.58, -23445.01, -19713.61, -21454.41, -13900.15, 0.000, 0.000, 0.000, 23:11:46.826, 1574395906826
224, 15170.11, -1921.94, -20473.46, -18959.62, -23375.25, -19427.26, -21450.01, -13578.28, 0.000, 0.000, 0.000, 23:11:46.833, 1574395906833
225, 15155.00, -1974.46, -20420.35, -17731.79, -23356.05, -19299.14, -21471.24, -13384.78, 0.000, 0.000, 0.000, 23:11:46.833, 1574395906833
226, 15168.09, -1952.22, -20590.76, -19162.75, -23423.00, -19573.91, -21480.65, -13685.88, 0.000, 0.000, 0.000, 23:11:46.840, 1574395906840
227, 15187.29, -1899.72, -20662.53, -20578.33, -23446.44, -19737.53, -21454.19, -13916.73, 0.000, 0.000, 0.000, 23:11:46.841, 1574395906841
228, 15170.44, -1917.76, -20504.48, -19337.52, -23385.56, -19488.71, -21443.06, -13655.31, 0.000, 0.000, 0.000, 23:11:46.849, 1574395906849
229, 15154.71, -1973.32, -20407.28, -17746.95, -23352.36, -19287.01, -21466.12, -13386.48, 0.000, 0.000, 0.000, 23:11:46.849, 1574395906849
230, 15146.48, -1973.12, -20568.28, -18788.92, -23425.63, -19522.64, -21492.99, -13627.59, 0.000, 0.000, 0.000, 23:11:46.856, 1574395906856
231, 15172.77, -1912.66, -20684.13, -20521.96, -23471.37, -19757.13, -21473.14, -13929.88, 0.206, 0.902, 0.414, 23:11:46.856, 1574395906856
232, 15196.71, -1893.57, -20539.15, -19702.88, -23401.70, -19548.79, -21436.06, -13720.08, 0.000, 0.000, 0.000, 23:11:46.862, 1574395906862
233, 15184.61, -1951.98, -20397.38, -17861.75, -23351.47, -19289.58, -21452.22, -13393.39, 0.000, 0.000, 0.000, 23:11:46.870, 1574395906870
234, 15187.05, -1955.53, -20508.44, -18422.11, -23397.49, -19448.83, -21472.45, -13544.73, 0.000, 0.000, 0.000, 23:11:46.870, 1574395906870
235, 15208.17, -1891.76, -20662.40, -20338.63, -23456.28, -19733.88, -21460.45, -13894.25, 0.000, 0.000, 0.000, 23:11:46.878, 1574395906878
236, 15205.09, -1882.04, -20582.76, -20035.79, -23424.98, -19615.18, -21447.48, -13796.41, 0.000, 0.000, 0.000, 23:11:46.878, 1574395906878
237, 15183.32, -1940.33, -20421.31, -18093.60, -23364.84, -19321.79, -21462.26, -13443.37, 0.000, 0.000, 0.000, 23:11:46.886, 1574395906886
238, 15186.56, -1956.58, -20488.93, -18131.15, -23394.10, -19395.77, -21480.03, -13489.93, 0.000, 0.000, 0.000, 23:11:46.887, 1574395906887
239, 15207.50, -1896.59, -20657.19, -20065.96, -23458.83, -19697.41, -21467.08, -13851.44, 0.000, 0.000, 0.000, 23:11:46.892, 1574395906892
240, 15215.61, -1865.41, -20609.07, -20281.97, -23439.98, -19657.22, -21445.74, -13849.74, 0.000, 0.000, 0.000, 23:11:46.893, 1574395906893
241, 15198.20, -1917.78, -20435.71, -18373.40, -23371.99, -19344.58, -21452.47, -13484.96, 0.208, 0.902, 0.414, 23:11:46.900, 1574395906900
242, 15186.47, -1955.78, -20464.41, -17891.41, -23380.93, -19338.93, -21472.56, -13433.38, 0.000, 0.000, 0.000, 23:11:46.901, 1574395906901
243, 15199.43, -1905.53, -20639.04, -19735.09, -23451.05, -19643.52, -21468.18, -13785.80, 0.000, 0.000, 0.000, 23:11:46.908, 1574395906908
244, 15216.49, -1860.34, -20638.75, -20469.66, -23448.48, -19685.00, -21442.77, -13878.29, 0.000, 0.000, 0.000, 23:11:46.908, 1574395906908
245, 15201.62, -1903.56, -20462.44, -18723.21, -23380.51, -19388.69, -21446.65, -13541.98, 0.000, 0.000, 0.000, 23:11:46.915, 1574395906915
246, 15184.72, -1950.64, -20436.60, -17754.53, -23378.27, -19309.60, -21476.56, -13409.84, 0.000, 0.000, 0.000, 23:11:46.915, 1574395906915
247, 15197.13, -1915.81, -20608.73, -19367.21, -23447.29, -19599.06, -21480.29, -13733.16, 0.000, 0.000, 0.000, 23:11:46.922, 1574395906922
248, 15211.64, -1874.10, -20668.28, -20563.85, -23472.91, -19735.67, -21464.78, -13928.89, 0.000, 0.000, 0.000, 23:11:46.922, 1574395906922
249, 15192.32, -1913.71, -20510.83, -19115.95, -23417.79, -19468.88, -21464.65, -13633.36, 0.000, 0.000, 0.000, 23:11:46.931, 1574395906931
250, 15192.39, -1950.35, -20415.35, -17708.88, -23371.77, -19286.56, -21469.25, -13389.39, 0.000, 0.000, 0.000, 23:11:46.942, 1574395906942
251, 15204.42, -1917.91, -20564.19, -18967.89, -23421.70, -19528.00, -21468.04, -13647.24, 0.206, 0.910, 0.416, 23:11:46.943, 1574395906943
252, 15223.33, -1860.56, -20658.62, -20536.71, -23459.72, -19729.48, -21448.11, -13914.38, 0.000, 0.000, 0.000, 23:11:46.945, 1574395906945
253, 15224.55, -1871.82, -20512.75, -19475.57, -23402.10, -19509.72, -21433.27, -13680.29, 0.000, 0.000, 0.000, 23:11:46.946, 1574395906946
254, 15192.06, -1930.27, -20402.04, -17762.48, -23363.92, -19282.92, -21456.06, -13386.68, 0.000, 0.000, 0.000, 23:11:46.953, 1574395906953
255, 15195.86, -1927.64, -20532.78, -18604.43, -23418.97, -19477.76, -21470.21, -13577.21, 0.000, 0.000, 0.000, 23:11:46.953, 1574395906953
0, 15219.75, -1868.56, -20666.09, -20423.86, -23467.23, -19728.25, -21446.63, -13892.64, 0.000, 0.000, 0.000, 23:11:46.961, 1574395906961
1, 15221.72, -1866.12, -20555.11, -19824.43, -23423.82, -19568.95, -21436.04, -13746.86, 0.000, 0.000, 0.000, 23:11:46.961, 1574395906961
2, 15203.50, -1923.32, -20405.91, -17926.93, -23363.99, -19298.27, -21451.21, -13406.00, 0.000, 0.000, 0.000, 23:11:46.969, 1574395906969
3, 15198.98, -1934.72, -20502.63, -18267.54, -23401.52, -19418.28, -21466.19, -13511.45, 0.000, 0.000, 0.000, 23:11:46.969, 1574395906969
4, 15218.21, -1877.64, -20653.99, -20211.72, -23461.49, -19708.85, -21451.84, -13869.59, 0.000, 0.000, 0.000, 23:11:46.975, 1574395906975
5, 15231.08, -1855.17, -20577.48, -20119.27, -23429.12, -19620.94, -21427.39, -13804.24, 0.204, 0.912, 0.408, 23:11:46.975, 1574395906975
6, 15207.88, -1917.85, -20417.09, -18174.45, -23372.12, -19325.18, -21447.68, -13448.98, 0.000, 0.000, 0.000, 23:11:46.983, 1574395906983
7, 15185.98, -1950.28, -20468.83, -18004.26, -23393.94, -19373.75, -21472.13, -13463.28, 0.000, 0.000, 0.000, 23:11:46.984, 1574395906984
8, 15201.91, -1892.57, -20647.00, -19922.04, -23459.96, -19682.21, -21459.73, -13824.13, 0.000, 0.000, 0.000, 23:11:46.990, 1574395906990
9, 15216.58, -1858.12, -20619.17, -20361.37, -23446.73, -19678.07, -21436.33, -13864.27, 0.000, 0.000, 0.000, 23:11:46.998, 1574395906998
10, 15197.08, -1914.02, -20445.05, -18506.62, -23382.29, -19373.78, -21444.67, -13513.84, 0.000, 0.000, 0.000, 23:11:46.998, 1574395906998
11, 15197.53, -1937.83, -20431.71, -17796.71, -23371.92, -19320.33, -21453.23, -13409.66, 0.000, 0.000, 0.000, 23:11:47.005, 1574395907005
12, 15217.45, -1891.90, -20609.02, -19557.71, -23443.13, -19620.29, -21451.86, -13750.32, 0.000, 0.000, 0.000, 23:11:47.005, 1574395907005
13, 15235.57, -1848.44, -20630.06, -20493.55, -23450.60, -19702.28, -21430.67, -13888.57, 0.000, 0.000, 0.000, 23:11:47.014, 1574395907014
14, 15221.96, -1881.82, -20452.27, -18855.84, -23380.48, -19408.60, -21427.39, -13562.05, 0.000, 0.000, 0.000, 23:11:47.014, 1574395907014
15, 15196.68, -1944.07, -20412.04, -17705.20, -23372.28, -19300.48, -21460.38, -13394.13, 0.200, 0.908, 0.410, 23:11:47.021, 1574395907021
16, 15198.45, -1919.01, -20584.21, -19194.87, -23444.95, -19576.93, -21470.21, -13702.40, 0.000, 0.000, 0.000, 23:11:47.021, 1574395907021
17, 15217.83, -1857.12, -20649.17, -20554.33, -23463.21, -19729.24, -21440.60, -13917.69, 0.000, 0.000, 0.000, 23:11:47.029, 1574395907029
18, 15204.84, -1888.90, -20502.40, -19253.32, -23403.44, -19483.08, -21436.66, -13648.96, 0.000, 0.000, 0.000, 23:11:47.029, 1574395907029
19, 15198.02, -1942.84, -20406.22, -17708.82, -23363.05, -19283.32, -21449.76, -13377.27, 0.000, 0.000, 0.000, 23:11:47.045, 1574395907045
20, 15196.46, -1927.10, -20552.85, -18808.25, -23417.94, -19512.96, -21458.21, -13615.21, 0.000, 0.000, 0.000, 23:11:47.045, 1574395907045
21, 15215.37, -1863.96, -20663.74, -20505.42, -23454.98, -19738.85, -21434.50, -13906.99, 0.000, 0.000, 0.000, 23:11:47.045, 1574395907045
22, 15211.48, -1875.13, -20539.17, -19631.40, -23409.18, -19537.46, -21426.29, -13709.80, 0.000, 0.000, 0.000, 23:11:47.045, 1574395907045
23, 15209.89, -1926.63, -20398.07, -17813.00, -23355.38, -19272.63, -21435.68, -13377.97, 0.000, 0.000, 0.000, 23:11:47.061, 1574395907061
24, 15212.04, -1916.01, -20494.31, -18441.06, -23389.29, -19426.84, -21437.67, -13523.12, 0.000, 0.000, 0.000, 23:11:47.061, 1574395907061
25, 15225.20, -1864.74, -20649.57, -20331.53, -23455.36, -19706.08, -21431.66, -13870.93, 0.000, 0.000, 0.000, 23:11:47.061, 1574395907061
26, 15228.53, -1855.40, -20555.92, -19942.09, -23422.19, -19579.28, -21420.77, -13763.69, 0.206, 0.902, 0.406, 23:11:47.067, 1574395907067
27, 15213.74, -1912.01, -20391.36, -18005.25, -23358.55, -19291.88, -21434.83, -13412.43, 0.000, 0.000, 0.000, 23:11:47.067, 1574395907067
28, 15198.98, -1940.44, -20480.39, -18137.46, -23399.44, -19394.99, -21465.05, -13490.66, 0.000, 0.000, 0.000, 23:11:47.073, 1574395907073
29, 15208.08, -1895.18, -20658.87, -20102.96, -23471.50, -19703.33, -21462.28, -13861.46, 0.000, 0.000, 0.000, 23:11:47.073, 1574395907073
30, 15211.55, -1876.34, -20608.46, -20240.15, -23449.04, -19651.56, -21437.45, -13835.57, 0.000, 0.000, 0.000, 23:11:47.081, 1574395907081
31, 15196.37, -1926.99, -20428.53, -18309.83, -23379.99, -19348.34, -21440.06, -13469.43, 0.000, 0.000, 0.000, 23:11:47.081, 1574395907081
32, 15182.71, -1958.62, -20460.94, -17924.02, -23398.39, -19364.23, -21468.00, -13446.00, 0.000, 0.000, 0.000, 23:11:47.096, 1574395907096
33, 15175.78, -1929.04, -20657.30, -19809.01, -23481.22, -19688.76, -21478.77, -13822.36, 0.000, 0.000, 0.000, 23:11:47.096, 1574395907096
34, 15210.34, -1871.33, -20632.54, -20439.40, -23456.63, -19695.66, -21434.14, -13879.74, 0.000, 0.000, 0.000, 23:11:47.097, 1574395907097
35, 15208.10, -1899.83, -20438.08, -18646.70, -23373.49, -19379.14, -21423.54, -13520.01, 0.000, 0.000, 0.000, 23:11:47.098, 1574395907098
36, 15187.29, -1950.17, -20420.98, -17747.42, -23372.68, -19311.13, -21450.01, -13397.55, 0.208, 0.900, 0.402, 23:11:47.111, 1574395907111
37, 15201.53, -1913.11, -20597.85, -19411.37, -23440.65, -19604.36, -21449.09, -13726.90, 0.000, 0.000, 0.000, 23:11:47.111, 1574395907111
38, 15212.06, -1866.93, -20643.06, -20538.62, -23456.37, -19715.89, -21427.48, -13899.01, 0.000, 0.000, 0.000, 23:11:47.112, 1574395907112
39, 15203.50, -1899.27, -20477.10, -19027.75, -23391.75, -19442.87, -21425.11, -13594.02, 0.000, 0.000, 0.000, 23:11:47.119, 1574395907119
40, 15193.58, -1947.49, -20406.96, -17689.93, -23365.13, -19284.79, -21445.13, -13375.55, 0.000, 0.000, 0.000, 23:11:47.119, 1574395907119
41, 15204.95, -1922.97, -20566.31, -19026.86, -23432.00, -19546.15, -21457.21, -13661.16, 0.000, 0.000, 0.000, 23:11:47.126, 1574395907126
42, 15216.08, -1871.42, -20659.74, -20541.88, -23467.16, -19737.89, -21439.84, -13919.12, 0.000, 0.000, 0.000, 23:11:47.126, 1574395907126
43, 15220.44, -1877.10, -20504.24, -19399.55, -23400.76, -19496.24, -21419.03, -13663.15, 0.000, 0.000, 0.000, 23:11:47.133, 1574395907133
44, 15198.78, -1933.02, -20399.83, -17734.97, -23363.76, -19285.44, -21443.86, -13382.75, 0.000, 0.000, 0.000, 23:11:47.133, 1574395907133
45, 15196.93, -1928.11, -20540.69, -18653.94, -23421.92, -19494.34, -21463.53, -13599.16, 0.000, 0.000, 0.000, 23:11:47.145, 1574395907145
46, 15217.76, -1875.65, -20667.12, -20441.88, -23466.92, -19734.58, -21440.49, -13907.57, 0.206, 0.898, 0.408, 23:11:47.145, 1574395907145
47, 15211.12, -1881.39, -20556.09, -19770.50, -23423.76, -19568.66, -21428.24, -13743.80, 0.000, 0.000, 0.000, 23:11:47.159, 1574395907159
48, 15188.66, -1943.98, -20417.24, -17899.14, -23373.46, -19304.35, -21446.36, -13411.02, 0.000, 0.000, 0.000, 23:11:47.159, 1574395907159
49, 15196.12, -1946.70, -20504.24, -18322.93, -23407.62, -19434.91, -21455.71, -13528.19, 0.000, 0.000, 0.000, 23:11:47.159, 1574395907159
50, 15207.46, -1889.55, -20662.76, -20256.63, -23467.43, -19722.55, -21440.82, -13879.32, 0.000, 0.000, 0.000, 23:11:47.159, 1574395907159
51, 15209.51, -1875.51, -20590.34, -20088.65, -23437.46, -19628.29, -21429.31, -13811.95, 0.000, 0.000, 0.000, 23:11:47.164, 1574395907164
52, 15187.23, -1932.53, -20426.01, -18138.48, -23378.38, -19329.95, -21445.71, -13454.68, 0.000, 0.000, 0.000, 23:11:47.164, 1574395907164
53, 15179.76, -1956.45, -20480.05, -18045.84, -23404.47, -19383.25, -21461.52, -13470.01, 0.000, 0.000, 0.000, 23:11:47.171, 1574395907171
54, 15189.15, -1910.56, -20667.12, -19989.61, -23484.17, -19698.99, -21462.84, -13845.07, 0.000, 0.000, 0.000, 23:11:47.171, 1574395907171
55, 15220.71, -1860.83, -20618.46, -20327.77, -23451.76, -19663.05, -21421.38, -13846.95, 0.000, 0.000, 0.000, 23:11:47.180, 1574395907180
56, 15202.31, -1913.67, -20439.08, -18442.56, -23381.02, -19355.20, -21425.02, -13483.24, 0.206, 0.898, 0.406, 23:11:47.196, 1574395907196
57, 15191.12, -1948.83, -20445.41, -17836.24, -23388.33, -19335.06, -21451.91, -13417.35, 0.000, 0.000, 0.000, 23:11:47.197, 1574395907197
58, 15207.99, -1896.41, -20615.93, -19626.82, -23452.05, -19632.97, -21443.84, -13762.01, 0.000, 0.000, 0.000, 23:11:47.197, 1574395907197
59, 15217.00, -1857.88, -20636.38, -20485.26, -23458.09, -19701.36, -21423.25, -13883.92, 0.000, 0.000, 0.000, 23:11:47.197, 1574395907197
60, 15202.96, -1896.68, -20462.17, -18803.99, -23390.50, -19408.58, -21424.50, -13556.51, 0.000, 0.000, 0.000, 23:11:47.210, 1574395907210
61, 15189.26, -1943.89, -20416.62, -17714.18, -23375.50, -19303.37, -21448.24, -13395.13, 0.000, 0.000, 0.000, 23:11:47.210, 1574395907210
62, 15202.05, -1908.97, -20583.32, -19250.69, -23438.06, -19585.31, -21452.13, -13709.93, 0.000, 0.000, 0.000, 23:11:47.210, 1574395907210
63, 15211.64, -1861.03, -20651.02, -20551.49, -23459.59, -19731.31, -21431.97, -13921.22, 0.000, 0.000, 0.000, 23:11:47.210, 1574395907210
64, 15202.74, -1889.08, -20493.13, -19190.58, -23395.77, -19471.41, -21425.13, -13635.28, 0.000, 0.000, 0.000, 23:11:47.215, 1574395907215
65, 15190.83, -1942.41, -20404.39, -17700.44, -23362.24, -19284.62, -21443.23, -13380.78, 0.000, 0.000, 0.000, 23:11:47.216, 1574395907216
66, 15190.33, -1925.69, -20554.78, -18868.74, -23420.92, -19524.45, -21458.23, -13634.88, 0.206, 0.898, 0.410, 23:11:47.223, 1574395907223
67, 15213.25, -1867.64, -20657.57, -20510.03, -23455.49, -19728.39, -21434.99, -13906.12, 0.000, 0.000, 0.000, 23:11:47.224, 1574395907224
68, 15211.43, -1877.26, -20522.21, -19561.53, -23402.14, -19519.71, -21427.05, -13691.36, 0.000, 0.000, 0.000, 23:11:47.230, 1574395907230
69, 15188.41, -1939.15, -20395.45, -17792.26, -23355.70, -19284.10, -21453.05, -13387.46, 0.000, 0.000, 0.000, 23:11:47.231, 1574395907231
70, 15188.99, -1936.38, -20509.65, -18508.85, -23399.01, -19455.90, -21468.45, -13556.69, 0.000, 0.000, 0.000, 23:11:47.237, 1574395907237
71, 15210.67, -1877.01, -20654.08, -20377.28, -23451.92, -19718.91, -21451.48, -13883.25, 0.000, 0.000, 0.000, 23:11:47.245, 1574395907245
72, 15214.79, -1872.79, -20549.23, -19906.78, -23410.79, -19574.32, -21437.09, -13751.89, 0.000, 0.000, 0.000, 23:11:47.246, 1574395907246
73, 15194.69, -1934.36, -20395.01, -17983.14, -23351.54, -19292.46, -21455.82, -13403.78, 0.000, 0.000, 0.000, 23:11:47.253, 1574395907253
74, 15193.04, -1944.89, -20470.35, -18199.88, -23378.11, -19391.72, -21469.59, -13479.35, 0.000, 0.000, 0.000, 23:11:47.254, 1574395907254
75, 15208.08, -1887.81, -20635.24, -20151.30, -23441.01, -19683.86, -21458.01, -13839.35, 0.000, 0.000, 0.000, 23:11:47.261, 1574395907261
76, 15215.66, -1864.16, -20567.81, -20194.67, -23416.94, -19620.36, -21440.73, -13802.56, 0.202, 0.896, 0.410, 23:11:47.262, 1574395907262
77, 15199.36, -1922.12, -20395.38, -18255.70, -23353.13, -19317.18, -21453.23, -13438.29, 0.000, 0.000, 0.000, 23:11:47.268, 1574395907268
78, 15169.03, -1963.00, -20441.97, -17954.62, -23379.57, -19353.46, -21486.91, -13432.71, 0.000, 0.000, 0.000, 23:11:47.268, 1574395907268
79, 15192.97, -1897.48, -20608.73, -19837.60, -23435.49, -19648.72, -21470.21, -13782.06, 0.000, 0.000, 0.000, 23:11:47.275, 1574395907275
80, 15228.20, -1842.99, -20577.48, -20387.72, -23410.01, -19642.60, -21427.05, -13821.18, 0.000, 0.000, 0.000, 23:11:47.275, 1574395907275
81, 15213.56, -1896.48, -20403.48, -18575.21, -23342.89, -19337.54, -21432.57, -13471.78, 0.000, 0.000, 0.000, 23:11:47.282, 1574395907282
82, 15192.12, -1946.03, -20402.54, -17768.38, -23343.38, -19290.11, -21465.56, -13377.27, 0.000, 0.000, 0.000, 23:11:47.282, 1574395907282
83, 15206.29, -1905.78, -20575.76, -19467.29, -23407.95, -19587.44, -21464.65, -13712.04, 0.000, 0.000, 0.000, 23:11:47.290, 1574395907290
84, 15221.56, -1860.16, -20614.74, -20519.77, -23425.12, -19692.80, -21446.54, -13870.80, 0.000, 0.000, 0.000, 23:11:47.290, 1574395907290
85, 15212.24, -1888.70, -20438.79, -18955.40, -23354.89, -19410.19, -21438.83, -13553.90, 0.000, 0.000, 0.000, 23:11:47.297, 1574395907297
86, 15193.04, -1940.40, -20377.68, -17686.38, -23333.14, -19268.37, -21460.45, -13349.60, 0.208, 0.902, 0.414, 23:11:47.305, 1574395907305
87, 15202.92, -1910.29, -20539.22, -19076.68, -23396.55, -19524.00, -21466.84, -13634.54, 0.000, 0.000, 0.000, 23:11:47.305, 1574395907305
88, 15216.15, -1859.75, -20632.83, -20541.68, -23433.05, -19712.07, -21456.62, -13890.11, 0.000, 0.000, 0.000, 23:11:47.312, 1574395907312
89, 15216.73, -1874.71, -20474.20, -19336.45, -23367.27, -19464.35, -21440.04, -13624.19, 0.000, 0.000, 0.000, 23:11:47.312, 1574395907312
90, 15211.39, -1929.04, -20359.29, -17707.48, -23321.61, -19243.33, -21450.74, -13331.70, 0.000, 0.000, 0.000, 23:11:47.320, 1574395907320
91, 15195.79, -1926.09, -20507.52, -18703.60, -23384.89, -19464.14, -21468.96, -13556.80, 0.000, 0.000, 0.000, 23:11:47.320, 1574395907320
92, 15214.74, -1861.70, -20629.25, -20457.39, -23430.17, -19701.10, -21450.72, -13862.42, 0.000, 0.000, 0.000, 23:11:47.328, 1574395907328
93, 15215.68, -1867.91, -20502.34, -19692.65, -23379.19, -19517.68, -21434.32, -13683.49, 0.000, 0.000, 0.000, 23:11:47.328, 1574395907328
94, 15198.47, -1927.99, -20364.14, -17841.41, -23327.55, -19256.00, -21451.66, -13357.49, 0.000, 0.000, 0.000, 23:11:47.335, 1574395907335
95, 15202.16, -1926.74, -20462.84, -18355.65, -23365.64, -19400.89, -21463.13, -13486.35, 0.000, 0.000, 0.000, 23:11:47.335, 1574395907335
96, 15218.65, -1869.03, -20619.04, -20273.28, -23422.91, -19681.25, -21450.14, -13833.20, 0.000, 0.000, 0.000, 23:11:47.342, 1574395907342
97, 15218.34, -1863.29, -20530.57, -20013.64, -23389.15, -19572.80, -21432.51, -13743.46, 0.214, 0.906, 0.420, 23:11:47.342, 1574395907342
98, 15204.57, -1919.46, -20367.89, -18067.29, -23323.26, -19272.37, -21440.51, -13381.88, 0.000, 0.000, 0.000, 23:11:47.350, 1574395907350
99, 15198.29, -1937.25, -20432.00, -18065.13, -23346.89, -19342.26, -21459.04, -13423.47, 0.000, 0.000, 0.000, 23:11:47.351, 1574395907351
100, 15202.38, -1899.38, -20617.52, -20021.57, -23425.12, -19663.66, -21466.19, -13803.25, 0.000, 0.000, 0.000, 23:11:47.357, 1574395907357
101, 15198.13, -1885.62, -20584.91, -20298.63, -23419.11, -19646.20, -21457.03, -13821.92, 0.000, 0.000, 0.000, 23:11:47.364, 1574395907364
102, 15199.81, -1920.86, -20391.03, -18384.51, -23334.13, -19322.90, -21445.25, -13442.90, 0.000, 0.000, 0.000, 23:11:47.364, 1574395907364
103, 15197.46, -1945.76, -20405.78, -17854.97, -23336.54, -19305.18, -21460.11, -13383.44, 0.000, 0.000, 0.000, 23:11:47.372, 1574395907372
104, 15206.58, -1905.33, -20587.90, -19679.73, -23407.55, -19616.54, -21459.57, -13743.91, 0.000, 0.000, 0.000, 23:11:47.372, 1574395907372
105, 15218.79, -1863.55, -20598.50, -20453.16, -23409.58, -19667.43, -21435.61, -13840.80, 0.000, 0.000, 0.000, 23:11:47.380, 1574395907380
106, 15206.09, -1904.19, -20422.86, -18730.45, -23344.65, -19369.73, -21437.56, -13498.20, 0.000, 0.000, 0.000, 23:11:47.380, 1574395907380
107, 15189.82, -1955.46, -20397.91, -17725.36, -23341.52, -19281.58, -21468.71, -13358.99, 0.210, 0.904, 0.414, 23:11:47.388, 1574395907388
108, 15210.34, -1912.44, -20565.75, -19314.46, -23403.86, -19561.82, -21466.77, -13676.00, 0.000, 0.000, 0.000, 23:11:47.388, 1574395907388
109, 15216.40, -1863.60, -20611.37, -20538.35, -23417.38, -19695.02, -21439.30, -13863.94, 0.000, 0.000, 0.000, 23:11:47.395, 1574395907395
110, 15211.21, -1892.79, -20443.13, -19118.83, -23351.96, -19426.62, -21432.37, -13569.68, 0.000, 0.000, 0.000, 23:11:47.395, 1574395907395
111, 15194.29, -1950.66, -20372.81, -17695.16, -23326.17, -19254.78, -21457.74, -13337.75, 0.000, 0.000, 0.000, 23:11:47.402, 1574395907402
112, 15192.19, -1937.14, -20535.98, -18939.26, -23391.53, -19505.63, -21470.62, -13605.75, 0.000, 0.000, 0.000, 23:11:47.403, 1574395907403
113, 15201.22, -1889.84, -20641.05, -20537.92, -23433.95, -19715.60, -21458.14, -13881.57, 0.000, 0.000, 0.000, 23:11:47.411, 1574395907411
114, 15188.46, -1907.25, -20503.95, -19517.50, -23385.78, -19505.61, -21455.48, -13664.36, 0.000, 0.000, 0.000, 23:11:47.411, 1574395907411
115, 15183.52, -1950.88, -20371.36, -17772.68, -23330.01, -19263.11, -21463.46, -13358.30, 0.000, 0.000, 0.000, 23:11:47.418, 1574395907418
116, 15192.66, -1941.05, -20492.59, -18562.21, -23376.86, -19444.83, -21471.35, -13536.42, 0.000, 0.000, 0.000, 23:11:47.418, 1574395907418
117, 15207.43, -1880.09, -20632.87, -20401.84, -23432.12, -19696.89, -21455.39, -13852.31, 0.206, 0.904, 0.414, 23:11:47.427, 1574395907427
118, 15205.53, -1880.81, -20530.05, -19851.25, -23393.98, -19546.51, -21443.84, -13712.88, 0.000, 0.000, 0.000, 23:11:47.433, 1574395907433
119, 15190.33, -1939.59, -20377.66, -17934.95, -23333.39, -19265.04, -21457.16, -13368.11, 0.000, 0.000, 0.000, 23:11:47.433, 1574395907433
120, 15189.28, -1952.83, -20468.07, -18240.23, -23372.26, -19388.08, -21479.85, -13472.67, 0.000, 0.000, 0.000, 23:11:47.440, 1574395907440
121, 15205.49, -1895.83, -20626.90, -20189.53, -23432.94, -19679.59, -21464.22, -13830.23, 0.000, 0.000, 0.000, 23:11:47.441, 1574395907441
122, 15208.33, -1880.09, -20558.33, -20145.18, -23403.88, -19604.27, -21442.41, -13780.74, 0.000, 0.000, 0.000, 23:11:47.447, 1574395907447
123, 15181.59, -1935.91, -20393.48, -18196.31, -23344.70, -19302.63, -21454.12, -13416.79, 0.000, 0.000, 0.000, 23:11:47.447, 1574395907447
124, 15177.57, -1957.48, -20431.86, -17974.58, -23357.66, -19332.74, -21468.94, -13413.80, 0.000, 0.000, 0.000, 23:11:47.455, 1574395907455
125, 15201.38, -1906.11, -20605.56, -19889.90, -23424.45, -19648.17, -21463.98, -13782.15, 0.000, 0.000, 0.000, 23:11:47.455, 1574395907455
126, 15212.73, -1869.48, -20589.87, -20367.09, -23419.06, -19653.22, -21445.67, -13831.19, 0.000, 0.000, 0.000, 23:11:47.463, 1574395907463
127, 15206.47, -1908.26, -20412.98, -18519.78, -23345.14, -19341.66, -21443.01, -13469.34, 0.208, 0.900, 0.412, 23:11:47.464, 1574395907464
128, 15191.90, -1951.93, -20402.38, -17786.96, -23337.70, -19292.88, -21460.63, -13372.31, 0.000, 0.000, 0.000, 23:11:47.469, 1574395907469
129, 15200.48, -1917.56, -20574.94, -19525.32, -23402.63, -19588.93, -21455.51, -13712.44, 0.000, 0.000, 0.000, 23:11:47.469, 1574395907469
130, 15217.67, -1875.69, -20604.93, -20497.24, -23412.83, -19676.71, -21434.67, -13854.93, 0.000, 0.000, 0.000, 23:11:47.477, 1574395907477
131, 15209.31, -1908.35, -20436.74, -18886.06, -23350.17, -19393.74, -21437.42, -13541.18, 0.000, 0.000, 0.000, 23:11:47.477, 1574395907477
132, 15191.38, -1957.52, -20385.93, -17697.51, -23334.08, -19268.88, -21462.90, -13360.06, 0.000, 0.000, 0.000, 23:11:47.484, 1574395907484
133, 15195.79, -1932.58, -20555.09, -19152.76, -23399.08, -19541.17, -21465.47, -13654.70, 0.000, 0.000, 0.000, 23:11:47.494, 1574395907494
134, 15204.84, -1890.02, -20640.18, -20549.66, -23436.74, -19706.95, -21449.92, -13882.91, 0.000, 0.000, 0.000, 23:11:47.495, 1574395907495
135, 15196.88, -1910.67, -20483.23, -19284.03, -23378.20, -19457.17, -21442.61, -13615.43, 0.000, 0.000, 0.000, 23:11:47.500, 1574395907500
136, 15196.62, -1948.71, -20361.30, -17696.12, -23322.12, -19241.32, -21444.71, -13334.47, 0.000, 0.000, 0.000, 23:11:47.501, 1574395907501
137, 15202.52, -1933.20, -20503.57, -18758.01, -23377.62, -19465.62, -21454.52, -13565.03, 0.210, 0.898, 0.406, 23:11:47.507, 1574395907507
138, 15219.59, -1874.13, -20626.05, -20475.74, -23423.91, -19699.08, -21438.85, -13868.83, 0.000, 0.000, 0.000, 23:11:47.507, 1574395907507
139, 15215.23, -1886.24, -20505.06, -19633.82, -23382.29, -19512.04, -21433.36, -13682.22, 0.000, 0.000, 0.000, 23:11:47.515, 1574395907515
140, 15199.77, -1940.40, -20364.65, -17807.48, -23329.34, -19254.51, -21446.77, -13356.02, 0.000, 0.000, 0.000, 23:11:47.515, 1574395907515
141, 15204.86, -1939.68, -20466.91, -18405.59, -23368.66, -19412.53, -21461.05, -13509.48, 0.000, 0.000, 0.000, 23:11:47.522, 1574395907522
142, 15222.79, -1876.99, -20617.81, -20307.05, -23424.27, -19689.14, -21449.54, -13858.98, 0.000, 0.000, 0.000, 23:11:47.522, 1574395907522
143, 15221.27, -1874.46, -20536.20, -19962.23, -23395.48, -19568.86, -21436.64, -13747.53, 0.000, 0.000, 0.000, 23:11:47.530, 1574395907530
144, 15207.19, -1927.90, -20369.72, -18014.46, -23331.04, -19271.70, -21446.21, -13385.19, 0.000, 0.000, 0.000, 23:11:47.530, 1574395907530
145, 15200.62, -1948.65, -20438.99, -18107.46, -23359.96, -19356.61, -21465.18, -13446.52, 0.000, 0.000, 0.000, 23:11:47.538, 1574395907538
146, 15211.39, -1897.60, -20617.90, -20069.70, -23430.80, -19671.86, -21462.14, -13815.55, 0.000, 0.000, 0.000, 23:11:47.538, 1574395907538
147, 15221.47, -1869.48, -20572.48, -20238.43, -23409.88, -19620.79, -21440.60, -13803.16, 0.204, 0.902, 0.410, 23:11:47.546, 1574395907546
148, 15208.28, -1920.17, -20393.60, -18310.48, -23337.84, -19306.72, -21443.88, -13437.47, 0.000, 0.000, 0.000, 23:11:47.551, 1574395907551
149, 15199.79, -1950.37, -20417.40, -17878.02, -23348.83, -19309.43, -21465.92, -13399.92, 0.000, 0.000, 0.000, 23:11:47.552, 1574395907552
150, 15213.60, -1904.66, -20596.60, -19740.97, -23416.92, -19615.35, -21458.46, -13754.19, 0.000, 0.000, 0.000, 23:11:47.559, 1574395907559
151, 15224.11, -1865.97, -20592.59, -20427.64, -23412.13, -19652.90, -21433.24, -13836.98, 0.000, 0.000, 0.000, 23:11:47.559, 1574395907559
152, 15210.88, -1908.19, -20415.01, -18663.86, -23343.92, -19352.30, -21434.94, -13497.15, 0.000, 0.000, 0.000, 23:11:47.567, 1574395907567
153, 15197.33, -1953.79, -20388.25, -17732.67, -23338.17, -19273.51, -21457.54, -13364.24, 0.000, 0.000, 0.000, 23:11:47.567, 1574395907567
154, 15198.20, -1923.50, -20576.17, -19380.06, -23419.51, -19574.41, -21474.79, -13703.05, 0.000, 0.000, 0.000, 23:11:47.575, 1574395907575
155, 15205.80, -1885.62, -20636.74, -20545.81, -23449.55, -19708.18, -21466.93, -13897.89, 0.000, 0.000, 0.000, 23:11:47.575, 1574395907575
156, 15212.62, -1898.42, -20448.47, -19044.07, -23367.03, -19418.28, -21443.39, -13577.72, 0.000, 0.000, 0.000, 23:11:47.582, 1574395907582
157, 15197.22, -1949.68, -20377.55, -17681.32, -23340.52, -19256.34, -21462.88, -13352.53, 0.202, 0.898, 0.406, 23:11:47.582, 1574395907582
158, 15208.46, -1921.91, -20532.29, -18987.25, -23402.81, -19514.88, -21470.08, -13631.10, 0.000, 0.000, 0.000, 23:11:47.594, 1574395907594
159, 15224.51, -1862.12, -20623.82, -20521.34, -23434.26, -19704.49, -21446.88, -13887.50, 0.000, 0.000, 0.000, 23:11:47.594, 1574395907594
160, 15220.29, -1878.04, -20479.27, -19416.89, -23375.48, -19469.24, -21436.82, -13645.43, 0.000, 0.000, 0.000, 23:11:47.601, 1574395907601
161, 15203.50, -1941.63, -20370.17, -17736.64, -23338.10, -19251.27, -21463.22, -13362.97, 0.000, 0.000, 0.000, 23:11:47.601, 1574395907601
162, 15203.54, -1934.74, -20504.53, -18626.18, -23394.32, -19459.25, -21482.55, -13571.13, 0.000, 0.000, 0.000, 23:11:47.605, 1574395907605
163, 15216.53, -1872.96, -20630.28, -20428.51, -23441.37, -19711.98, -21461.63, -13888.95, 0.000, 0.000, 0.000, 23:11:47.612, 1574395907612
164, 15215.06, -1875.33, -20518.41, -19778.14, -23395.77, -19539.60, -21445.47, -13725.00, 0.000, 0.000, 0.000, 23:11:47.612, 1574395907612
165, 15196.93, -1937.20, -20372.79, -17894.45, -23342.51, -19268.19, -21459.37, -13380.54, 0.000, 0.000, 0.000, 23:11:47.620, 1574395907620
166, 15199.28, -1942.63, -20463.56, -18287.28, -23377.49, -19397.47, -21470.01, -13487.96, 0.000, 0.000, 0.000, 23:11:47.620, 1574395907620
167, 15226.79, -1880.03, -20620.04, -20218.85, -23434.87, -19679.84, -21447.32, -13833.02, 0.000, 0.000, 0.000, 23:11:47.627, 1574395907627
168, 15217.83, -1881.15, -20555.63, -20087.15, -23409.34, -19593.67, -21433.49, -13768.36, 0.204, 0.892, 0.416, 23:11:47.627, 1574395907627
169, 15186.94, -1938.66, -20387.81, -18136.63, -23344.50, -19296.62, -21444.51, -13408.41, 0.000, 0.000, 0.000, 23:11:47.634, 1574395907634
170, 15188.70, -1954.37, -20434.32, -18008.29, -23359.43, -19340.18, -21456.13, -13418.18, 0.000, 0.000, 0.000, 23:11:47.634, 1574395907634
171, 15203.34, -1904.99, -20609.43, -19936.01, -23422.97, -19642.18, -21445.18, -13778.49, 0.000, 0.000, 0.000, 23:11:47.643, 1574395907643
172, 15201.96, -1884.43, -20590.11, -20325.83, -23418.57, -19634.93, -21431.46, -13813.36, 0.000, 0.000, 0.000, 23:11:47.643, 1574395907643
173, 15182.42, -1935.17, -20415.23, -18463.52, -23354.64, -19337.37, -21442.21, -13462.32, 0.000, 0.000, 0.000, 23:11:47.651, 1574395907651
174, 15191.72, -1953.59, -20406.07, -17809.51, -23344.25, -19294.90, -21449.87, -13372.02, 0.000, 0.000, 0.000, 23:11:47.651, 1574395907651
175, 15211.50, -1905.13, -20579.41, -19589.38, -23411.64, -19594.88, -21447.97, -13719.46, 0.000, 0.000, 0.000, 23:11:47.657, 1574395907657
176, 15218.59, -1865.59, -20604.20, -20469.68, -23421.52, -19665.69, -21429.96, -13847.49, 0.000, 0.000, 0.000, 23:11:47.657, 1574395907657
177, 15207.25, -1903.85, -20424.82, -18803.61, -23353.08, -19371.74, -21426.63, -13512.90, 0.000, 0.000, 0.000, 23:11:47.664, 1574395907664
178, 15194.63, -1946.97, -20377.35, -17687.87, -23334.33, -19254.44, -21443.08, -13340.71, 0.200, 0.900, 0.408, 23:11:47.664, 1574395907664
179, 15206.61, -1914.78, -20545.54, -19206.83, -23399.95, -19541.59, -21451.39, -13660.83, 0.000, 0.000, 0.000, 23:11:47.672, 1574395907672
180, 15220.44, -1863.35, -20610.77, -20528.85, -23424.22, -19696.04, -21430.67, -13874.44, 0.000, 0.000, 0.000, 23:11:47.680, 1574395907680
181, 15218.05, -1884.25, -20448.07, -19182.58, -23358.40, -19432.11, -21416.46, -13585.57, 0.000, 0.000, 0.000, 23:11:47.680, 1574395907680
182, 15198.09, -1946.66, -20366.82, -17683.49, -23331.91, -19256.74, -21445.94, -13346.45, 0.000, 0.000, 0.000, 23:11:47.687, 1574395907687
183, 15204.93, -1933.02, -20520.22, -18831.03, -23394.18, -19495.35, -21460.60, -13600.52, 0.000, 0.000, 0.000, 23:11:47.688, 1574395907688
184, 15217.42, -1879.65, -20632.98, -20495.23, -23438.69, -19717.23, -21447.97, -13889.62, 0.000, 0.000, 0.000, 23:11:47.695, 1574395907695
185, 15215.03, -1886.06, -20495.83, -19573.56, -23382.38, -19507.33, -21432.57, -13674.95, 0.000, 0.000, 0.000, 23:11:47.695, 1574395907695
186, 15197.98, -1948.16, -20372.41, -17787.83, -23334.93, -19260.14, -21449.00, -13359.21, 0.000, 0.000, 0.000, 23:11:47.704, 1574395907704
187, 15201.31, -1945.41, -20487.29, -18474.19, -23378.49, -19433.79, -21462.61, -13530.52, 0.000, 0.000, 0.000, 23:11:47.704, 1574395907704
188, 15215.12, -1884.63, -20633.32, -20347.73, -23434.08, -19704.83, -21445.07, -13866.58, 0.200, 0.904, 0.414, 23:11:47.709, 1574395907709
189, 15212.80, -1876.14, -20533.81, -19908.70, -23395.71, -19568.01, -21425.82, -13740.58, 0.000, 0.000, 0.000, 23:11:47.709, 1574395907709
190, 15202.49, -1932.22, -20376.68, -17979.43, -23338.91, -19279.38, -21442.12, -13391.62, 0.000, 0.000, 0.000, 23:11:47.717, 1574395907717
191, 15201.02, -1944.18, -20454.01, -18161.46, -23371.88, -19380.55, -21461.56, -13469.54, 0.000, 0.000, 0.000, 23:11:47.717, 1574395907717
192, 15216.08, -1887.40, -20622.63, -20116.03, -23436.16, -19679.17, -21451.06, -13827.53, 0.000, 0.000, 0.000, 23:11:47.725, 1574395907725
193, 15219.82, -1866.84, -20561.55, -20188.81, -23408.96, -19611.44, -21424.79, -13793.86, 0.000, 0.000, 0.000, 23:11:47.725, 1574395907725
194, 15198.25, -1924.84, -20387.61, -18256.72, -23343.89, -19309.38, -21435.97, -13436.19, 0.000, 0.000, 0.000, 23:11:47.732, 1574395907732
195, 15187.43, -1955.87, -20425.52, -17919.82, -23359.63, -19332.47, -21459.75, -13420.75, 0.000, 0.000, 0.000, 23:11:47.739, 1574395907739
196, 15208.71, -1902.85, -20598.50, -19803.82, -23424.45, -19638.80, -21452.55, -13779.63, 0.000, 0.000, 0.000, 23:11:47.739, 1574395907739
197, 15215.70, -1871.80, -20592.82, -20405.06, -23426.88, -19667.84, -21436.55, -13857.88, 0.000, 0.000, 0.000, 23:11:47.748, 1574395907748
198, 15196.41, -1922.41, -20416.82, -18606.82, -23364.61, -19371.29, -21446.50, -13518.27, 0.196, 0.900, 0.412, 23:11:47.748, 1574395907748
199, 15199.61, -1949.65, -20393.24, -17748.11, -23348.86, -19296.95, -21460.00, -13393.23, 0.000, 0.000, 0.000, 23:11:47.755, 1574395907755
200, 15212.31, -1909.91, -20572.70, -19430.68, -23418.28, -19589.72, -21459.82, -13720.66, 0.000, 0.000, 0.000, 23:11:47.756, 1574395907756
201, 15224.13, -1858.88, -20606.07, -20504.82, -23428.47, -19693.05, -21432.46, -13878.13, 0.000, 0.000, 0.000, 23:11:47.761, 1574395907761
202, 15214.94, -1890.00, -20435.55, -18961.30, -23360.46, -19416.45, -21427.10, -13568.92, 0.000, 0.000, 0.000, 23:11:47.761, 1574395907761
203, 15196.19, -1945.23, -20375.69, -17675.87, -23340.00, -19270.64, -21450.50, -13355.86, 0.000, 0.000, 0.000, 23:11:47.769, 1574395907769
204, 15203.14, -1921.47, -20542.57, -19053.54, -23406.52, -19529.52, -21461.65, -13645.38, 0.000, 0.000, 0.000, 23:11:47.769, 1574395907769
205, 15223.64, -1866.88, -20628.33, -20536.20, -23441.08, -19709.52, -21442.63, -13896.01, 0.000, 0.000, 0.000, 23:11:47.778, 1574395907778
206, 15216.46, -1885.68, -20475.49, -19357.10, -23383.88, -19473.51, -21431.63, -13639.48, 0.000, 0.000, 0.000, 23:11:47.778, 1574395907778
207, 15199.45, -1941.45, -20368.34, -17720.73, -23343.67, -19266.46, -21452.06, -13366.45, 0.000, 0.000, 0.000, 23:11:47.785, 1574395907785
208, 15200.01, -1936.26, -20512.66, -18687.96, -23400.71, -19482.38, -21467.89, -13587.20, 0.198, 0.900, 0.408, 23:11:47.786, 1574395907786
209, 15212.57, -1879.36, -20639.29, -20452.76, -23448.16, -19720.70, -21449.49, -13892.26, 0.000, 0.000, 0.000, 23:11:47.791, 1574395907791
210, 15213.00, -1880.36, -20517.34, -19718.28, -23400.13, -19536.94, -21433.42, -13715.79, 0.000, 0.000, 0.000, 23:11:47.799, 1574395907799
211, 15200.44, -1940.42, -20377.91, -17861.72, -23348.54, -19282.34, -21456.04, -13394.75, 0.000, 0.000, 0.000, 23:11:47.800, 1574395907800
212, 15194.89, -1949.63, -20488.57, -18349.35, -23396.15, -19433.23, -21477.68, -13530.23, 0.000, 0.000, 0.000, 23:11:47.807, 1574395907807
213, 15212.87, -1886.04, -20638.97, -20273.30, -23449.24, -19713.16, -21455.69, -13873.21, 0.000, 0.000, 0.000, 23:11:47.807, 1574395907807
214, 15214.12, -1875.51, -20554.46, -20048.82, -23413.25, -19609.10, -21434.58, -13787.58, 0.000, 0.000, 0.000, 23:11:47.814, 1574395907814
215, 15187.21, -1939.24, -20395.99, -18098.72, -23360.01, -19314.97, -21455.93, -13432.33, 0.000, 0.000, 0.000, 23:11:47.814, 1574395907814
216, 15167.16, -1973.61, -20468.59, -18075.65, -23397.40, -19393.63, -21488.21, -13486.24, 0.000, 0.000, 0.000, 23:11:47.822, 1574395907822
217, 15202.58, -1901.53, -20629.01, -20002.73, -23447.09, -19681.43, -21460.11, -13831.53, 0.000, 0.000, 0.000, 23:11:47.822, 1574395907822
218, 15217.65, -1871.02, -20583.32, -20292.19, -23425.39, -19648.43, -21432.04, -13834.99, 0.204, 0.900, 0.406, 23:11:47.830, 1574395907830
219, 15201.44, -1924.51, -20410.99, -18407.87, -23360.39, -19347.78, -21441.78, -13483.22, 0.000, 0.000, 0.000, 23:11:47.830, 1574395907830
220, 15188.43, -1964.11, -20430.30, -17858.10, -23371.30, -19336.85, -21467.04, -13423.59, 0.000, 0.000, 0.000, 23:11:47.837, 1574395907837
221, 15207.88, -1921.45, -20612.35, -19684.76, -23442.89, -19646.82, -21464.76, -13775.20, 0.000, 0.000, 0.000, 23:11:47.837, 1574395907837
222, 15219.35, -1874.91, -20619.86, -20486.92, -23440.99, -19701.52, -21438.88, -13881.44, 0.000, 0.000, 0.000, 23:11:47.844, 1574395907844
223, 15203.83, -1919.70, -20440.74, -18775.35, -23368.46, -19404.64, -21439.72, -13545.83, 0.000, 0.000, 0.000, 23:11:47.844, 1574395907844
224, 15187.58, -1969.37, -20413.98, -17736.02, -23358.64, -19309.76, -21463.93, -13392.29, 0.000, 0.000, 0.000, 23:11:47.852, 1574395907852
225, 15191.41, -1940.44, -20588.75, -19303.59, -23427.67, -19592.02, -21466.70, -13708.46, 0.000, 0.000, 0.000, 23:11:47.861, 1574395907861
226, 15192.23, -1896.34, -20656.63, -20569.33, -23456.77, -19735.12, -21449.61, -13915.73, 0.000, 0.000, 0.000, 23:11:47.861, 1574395907861
227, 15189.91, -1914.16, -20484.86, -19163.85, -23391.57, -19465.87, -21441.00, -13623.59, 0.000, 0.000, 0.000, 23:11:47.867, 1574395907867
228, 15172.83, -1962.71, -20399.12, -17704.73, -23359.07, -19279.36, -21455.04, -13371.13, 0.196, 0.900, 0.404, 23:11:47.867, 1574395907867
229, 15178.82, -1948.45, -20552.36, -18916.33, -23418.99, -19519.17, -21460.89, -13622.74, 0.000, 0.000, 0.000, 23:11:47.874, 1574395907874
230, 15201.33, -1890.02, -20655.11, -20524.91, -23456.01, -19720.59, -21435.01, -13890.96, 0.000, 0.000, 0.000, 23:11:47.874, 1574395907874
231, 15204.91, -1898.71, -20515.08, -19524.34, -23398.41, -19503.51, -21421.78, -13670.08, 0.000, 0.000, 0.000, 23:11:47.882, 1574395907882
232, 15179.92, -1961.86, -20392.66, -17773.86, -23352.28, -19268.12, -21441.07, -13366.52, 0.000, 0.000, 0.000, 23:11:47.882, 1574395907882
233, 15183.90, -1953.45, -20514.63, -18540.79, -23402.97, -19453.77, -21456.82, -13551.21, 0.000, 0.000, 0.000, 23:11:47.890, 1574395907890
234, 15190.83, -1903.85, -20664.34, -20397.91, -23463.61, -19722.37, -21448.29, -13886.60, 0.000, 0.000, 0.000, 23:11:47.890, 1574395907890
235, 15191.79, -1901.28, -20558.44, -19879.19, -23418.21, -19574.96, -21428.06, -13748.85, 0.000, 0.000, 0.000, 23:11:47.897, 1574395907897
236, 15182.87, -1953.97, -20402.27, -17963.22, -23355.61, -19292.59, -21440.66, -13401.59, 0.000, 0.000, 0.000, 23:11:47.897, 1574395907897
237, 15171.33, -1977.73, -20500.37, -18241.28, -23404.71, -19418.57, -21475.02, -13508.59, 0.000, 0.000, 0.000, 23:11:47.905, 1574395907905
238, 15188.59, -1914.45, -20649.81, -20187.47, -23457.06, -19707.96, -21453.11, -13861.34, 0.202, 0.898, 0.406, 23:11:47.905, 1574395907905
239, 15191.43, -1886.82, -20571.03, -20167.13, -23415.60, -19623.20, -21419.21, -13805.13, 0.000, 0.000, 0.000, 23:11:47.912, 1574395907912
240, 15169.48, -1952.22, -20402.92, -18220.96, -23352.07, -19316.06, -21430.92, -13442.99, 0.000, 0.000, 0.000, 23:11:47.912, 1574395907912
241, 15162.51, -1978.40, -20445.19, -17970.91, -23371.59, -19351.40, -21454.03, -13441.04, 0.000, 0.000, 0.000, 23:11:47.919, 1574395907919
242, 15182.47, -1923.84, -20623.35, -19872.80, -23443.25, -19658.92, -21447.08, -13800.44, 0.000, 0.000, 0.000, 23:11:47.926, 1574395907926
243, 15190.87, -1892.92, -20605.27, -20387.32, -23432.41, -19670.74, -21423.05, -13855.11, 0.000, 0.000, 0.000, 23:11:47.926, 1574395907926
244, 15178.17, -1939.73, -20422.39, -18551.39, -23358.96, -19363.90, -21423.92, -13500.70, 0.000, 0.000, 0.000, 23:11:47.934, 1574395907934
245, 15167.65, -1978.17, -20419.53, -17788.72, -23357.08, -19313.96, -21443.64, -13400.29, 0.000, 0.000, 0.000, 23:11:47.934, 1574395907934
246, 15180.61, -1939.95, -20600.37, -19515.11, -23430.08, -19612.02, -21445.92, -13738.45, 0.000, 0.000, 0.000, 23:11:47.942, 1574395907942
247, 15195.90, -1892.16, -20628.80, -20514.12, -23440.45, -19698.79, -21421.73, -13881.08, 0.000, 0.000, 0.000, 23:11:47.943, 1574395907943
248, 15187.21, -1923.30, -20456.58, -18919.50, -23373.58, -19410.61, -21420.88, -13562.90, 0.000, 0.000, 0.000, 23:11:47.949, 1574395907949
249, 15174.96, -1976.74, -20407.05, -17704.95, -23355.90, -19288.24, -21447.46, -13374.50, 0.206, 0.902, 0.412, 23:11:47.949, 1574395907949
250, 15174.80, -1949.79, -20571.43, -19139.82, -23418.66, -19554.85, -21452.53, -13666.44, 0.000, 0.000, 0.000, 23:11:47.958, 1574395907958
251, 15189.44, -1899.14, -20651.60, -20558.06, -23446.44, -19722.66, -21431.54, -13900.48, 0.000, 0.000, 0.000, 23:11:47.958, 1574395907958
252, 15180.10, -1922.88, -20503.28, -19313.74, -23389.92, -19481.24, -21428.59, -13644.60, 0.000, 0.000, 0.000, 23:11:47.965, 1574395907965
253, 15167.40, -1979.63, -20401.31, -17730.32, -23353.59, -19283.32, -21450.83, -13382.30, 0.000, 0.000, 0.000, 23:11:47.965, 1574395907965
254, 15170.31, -1968.72, -20542.08, -18769.18, -23413.21, -19506.68, -21462.05, -13612.52, 0.000, 0.000, 0.000, 23:11:47.971, 1574395907971
255, 15187.52, -1908.64, -20658.22, -20494.25, -23456.28, -19727.25, -21432.95, -13890.65, 0.000, 0.000, 0.000, 23:11:47.971, 1574395907971
0, 15188.90, -1907.77, -20525.16, -19674.56, -23399.28, -19531.42, -21413.22, -13698.24, 0.000, 0.000, 0.000, 23:11:47.979, 1574395907979
1, 15171.04, -1963.91, -20389.19, -17839.60, -23348.27, -19271.43, -21430.11, -13373.36, 0.000, 0.000, 0.000, 23:11:47.987, 1574395907987
2, 15162.69, -1974.60, -20509.74, -18414.44, -23404.20, -19433.79, -21457.92, -13529.42, 0.000, 0.000, 0.000, 23:11:47.988, 1574395907988
3, 15199.79, -1895.94, -20642.66, -20302.85, -23445.53, -19691.60, -21428.53, -13856.25, 0.202, 0.896, 0.410, 23:11:47.995, 1574395907995
4, 15210.36, -1875.45, -20542.86, -19975.33, -23399.66, -19564.64, -21401.79, -13744.36, 0.000, 0.000, 0.000, 23:11:47.996, 1574395907996
5, 15187.47, -1937.20, -20385.37, -18032.47, -23339.76, -19277.17, -21417.46, -13391.31, 0.000, 0.000, 0.000, 23:11:48.003, 1574395908003
6, 15176.10, -1965.68, -20463.24, -18101.72, -23376.21, -19372.64, -21449.31, -13458.32, 0.000, 0.000, 0.000, 23:11:48.003, 1574395908003
7, 15183.38, -1920.84, -20638.57, -20062.39, -23447.52, -19684.31, -21445.69, -13830.59, 0.000, 0.000, 0.000, 23:11:48.010, 1574395908010
8, 15191.56, -1902.00, -20594.76, -20272.27, -23428.79, -19649.04, -21426.22, -13828.82, 0.000, 0.000, 0.000, 23:11:48.010, 1574395908010
9, 15165.12, -1956.94, -20423.03, -18358.58, -23364.01, -19343.78, -21440.15, -13475.40, 0.000, 0.000, 0.000, 23:11:48.017, 1574395908017
10, 15159.82, -1983.96, -20439.75, -17890.11, -23369.55, -19341.86, -21456.09, -13428.26, 0.000, 0.000, 0.000, 23:11:48.017, 1574395908017
11, 15175.20, -1944.22, -20621.85, -19738.85, -23442.15, -19649.46, -21453.36, -13781.21, 0.000, 0.000, 0.000, 23:11:48.025, 1574395908025
12, 15185.10, -1905.93, -20623.78, -20456.72, -23440.30, -19688.47, -21429.33, -13875.09, 0.000, 0.000, 0.000, 23:11:48.025, 1574395908025
13, 15167.13, -1941.29, -20441.05, -18705.26, -23367.16, -19387.39, -21425.98, -13531.16, 0.208, 0.900, 0.410, 23:11:48.032, 1574395908032
14, 15153.48, -1984.86, -20419.08, -17747.93, -23359.18, -19304.02, -21450.43, -13397.59, 0.000, 0.000, 0.000, 23:11:48.032, 1574395908032
15, 15166.37, -1951.78, -20596.62, -19365.30, -23427.24, -19590.21, -21449.54, -13713.78, 0.000, 0.000, 0.000, 23:11:48.042, 1574395908042
16, 15188.75, -1893.64, -20636.27, -20541.23, -23440.03, -19704.40, -21415.25, -13885.57, 0.000, 0.000, 0.000, 23:11:48.047, 1574395908047
17, 15176.14, -1922.88, -20467.27, -19079.47, -23380.17, -19439.15, -21414.45, -13594.98, 0.000, 0.000, 0.000, 23:11:48.048, 1574395908048
18, 15158.64, -1979.78, -20399.83, -17704.44, -23359.90, -19288.48, -21446.03, -13381.68, 0.000, 0.000, 0.000, 23:11:48.054, 1574395908054
19, 15156.07, -1967.71, -20565.46, -18993.69, -23430.46, -19546.24, -21459.26, -13654.99, 0.000, 0.000, 0.000, 23:11:48.054, 1574395908054
20, 15184.99, -1900.10, -20652.54, -20539.82, -23451.99, -19724.18, -21421.02, -13896.24, 0.000, 0.000, 0.000, 23:11:48.061, 1574395908061
21, 15180.05, -1916.53, -20511.84, -19468.57, -23394.92, -19507.24, -21415.09, -13668.99, 0.000, 0.000, 0.000, 23:11:48.062, 1574395908062
22, 15163.76, -1974.20, -20394.11, -17763.29, -23347.94, -19277.35, -21429.76, -13370.68, 0.000, 0.000, 0.000, 23:11:48.069, 1574395908069
23, 15170.96, -1962.68, -20523.64, -18605.50, -23396.96, -19464.52, -21438.16, -13558.93, 0.196, 0.894, 0.408, 23:11:48.069, 1574395908069
24, 15189.98, -1902.74, -20662.06, -20420.35, -23448.81, -19714.15, -21418.65, -13877.13, 0.000, 0.000, 0.000, 23:11:48.077, 1574395908077
25, 15187.58, -1903.94, -20545.21, -19814.31, -23402.63, -19555.79, -21403.29, -13728.44, 0.000, 0.000, 0.000, 23:11:48.077, 1574395908077
26, 15154.39, -1973.86, -20403.99, -17927.10, -23355.16, -19291.59, -21429.71, -13398.57, 0.000, 0.000, 0.000, 23:11:48.084, 1574395908084
27, 15156.40, -1979.67, -20492.91, -18282.25, -23393.98, -19409.79, -21444.08, -13501.53, 0.000, 0.000, 0.000, 23:11:48.084, 1574395908084
28, 15182.96, -1914.25, -20650.42, -20217.96, -23454.27, -19696.78, -21425.85, -13850.37, 0.000, 0.000, 0.000, 23:11:48.093, 1574395908093
29, 15188.77, -1899.65, -20581.53, -20119.18, -23424.83, -19613.90, -21410.56, -13794.54, 0.000, 0.000, 0.000, 23:11:48.093, 1574395908093
30, 15168.09, -1961.61, -20416.89, -18176.75, -23365.89, -19318.79, -21428.91, -13441.36, 0.000, 0.000, 0.000, 23:11:48.100, 1574395908100
31, 15170.73, -1975.72, -20458.69, -18008.11, -23380.24, -19356.50, -21439.81, -13442.14, 0.000, 0.000, 0.000, 23:11:48.107, 1574395908107
32, 15182.27, -1922.50, -20635.44, -19924.57, -23449.30, -19665.58, -21434.65, -13806.34, 0.000, 0.000, 0.000, 23:11:48.107, 1574395908107
33, 15196.82, -1886.87, -20609.38, -20346.61, -23435.94, -19658.60, -21413.91, -13843.24, 0.206, 0.896, 0.412, 23:11:48.114, 1574395908114
34, 15187.07, -1931.68, -20428.18, -18481.36, -23361.08, -19344.07, -21414.38, -13482.28, 0.000, 0.000, 0.000, 23:11:48.114, 1574395908114
35, 15160.83, -1976.48, -20431.39, -17802.43, -23367.63, -19310.23, -21437.27, -13398.60, 0.000, 0.000, 0.000, 23:11:48.122, 1574395908122
36, 15173.62, -1936.73, -20608.67, -19577.47, -23443.04, -19619.87, -21441.25, -13751.49, 0.000, 0.000, 0.000, 23:11:48.122, 1574395908122
37, 15188.52, -1890.02, -20629.74, -20496.08, -23449.24, -19697.54, -21418.54, -13884.43, 0.000, 0.000, 0.000, 23:11:48.129, 1574395908129
38, 15172.79, -1930.90, -20458.04, -18854.57, -23389.13, -19408.06, -21424.39, -13564.36, 0.000, 0.000, 0.000, 23:11:48.129, 1574395908129
39, 15159.60, -1982.06, -20414.96, -17713.91, -23374.76, -19295.21, -21449.67, -13393.70, 0.000, 0.000, 0.000, 23:11:48.141, 1574395908141
40, 15183.65, -1937.20, -20568.34, -19186.49, -23424.05, -19553.19, -21436.69, -13676.36, 0.000, 0.000, 0.000, 23:11:48.142, 1574395908142
41, 15197.82, -1884.86, -20640.18, -20535.46, -23452.08, -19704.45, -21417.98, -13896.75, 0.000, 0.000, 0.000, 23:11:48.145, 1574395908145
42, 15198.00, -1901.22, -20474.40, -19220.31, -23386.41, -19443.80, -21407.40, -13618.74, 0.000, 0.000, 0.000, 23:11:48.145, 1574395908145
43, 15182.94, -1960.58, -20382.82, -17692.95, -23352.14, -19256.23, -21433.27, -13365.47, 0.212, 0.900, 0.404, 23:11:48.153, 1574395908153
44, 15177.04, -1954.10, -20537.43, -18811.81, -23414.70, -19498.37, -21450.39, -13613.60, 0.000, 0.000, 0.000, 23:11:48.153, 1574395908153
45, 15181.95, -1900.52, -20649.95, -20495.05, -23456.14, -19717.55, -21430.16, -13894.20, 0.000, 0.000, 0.000, 23:11:48.159, 1574395908159
46, 15183.16, -1906.83, -20514.12, -19605.41, -23399.41, -19513.77, -21418.89, -13690.55, 0.000, 0.000, 0.000, 23:11:48.159, 1574395908159
47, 15163.74, -1966.46, -20384.57, -17800.50, -23351.87, -19268.37, -21444.84, -13378.57, 0.000, 0.000, 0.000, 23:11:48.166, 1574395908166
48, 15170.49, -1962.44, -20495.28, -18451.97, -23391.86, -19435.89, -21460.91, -13541.18, 0.000, 0.000, 0.000, 23:11:48.174, 1574395908174
49, 15187.63, -1910.22, -20643.65, -20338.48, -23448.59, -19703.73, -21447.44, -13874.78, 0.000, 0.000, 0.000, 23:11:48.174, 1574395908174
50, 15190.56, -1901.40, -20543.64, -19940.15, -23405.88, -19565.84, -21426.85, -13748.40, 0.000, 0.000, 0.000, 23:11:48.181, 1574395908181
51, 15174.46, -1953.68, -20376.99, -17999.21, -23337.84, -19270.18, -21436.46, -13385.61, 0.000, 0.000, 0.000, 23:11:48.181, 1574395908181
52, 15170.08, -1969.23, -20449.28, -18136.36, -23365.98, -19362.06, -21456.71, -13451.39, 0.000, 0.000, 0.000, 23:11:48.190, 1574395908190
53, 15200.48, -1908.77, -20615.26, -20080.09, -23431.62, -19656.82, -21448.55, -13810.29, 0.206, 0.902, 0.402, 23:11:48.190, 1574395908190
54, 15205.96, -1883.18, -20554.98, -20193.77, -23408.69, -19603.08, -21425.53, -13786.64, 0.000, 0.000, 0.000, 23:11:48.201, 1574395908201
55, 15187.03, -1931.73, -20372.74, -18265.78, -23339.74, -19297.18, -21431.88, -13423.32, 0.000, 0.000, 0.000, 23:11:48.202, 1574395908202
56, 15173.95, -1964.99, -20402.38, -17887.79, -23351.78, -19307.86, -21456.67, -13395.44, 0.000, 0.000, 0.000, 23:11:48.205, 1574395908205
57, 15187.99, -1919.75, -20579.74, -19755.68, -23419.84, -19610.57, -21453.58, -13745.92, 0.000, 0.000, 0.000, 23:11:48.206, 1574395908206
58, 15183.79, -1894.62, -20588.13, -20407.16, -23426.57, -19650.89, -21443.37, -13833.83, 0.000, 0.000, 0.000, 23:11:48.211, 1574395908211
59, 15174.67, -1936.91, -20409.29, -18628.19, -23357.77, -19350.55, -21446.59, -13491.62, 0.000, 0.000, 0.000, 23:11:48.211, 1574395908211
60, 15178.80, -1970.89, -20380.99, -17733.00, -23335.94, -19268.05, -21455.13, -13355.26, 0.000, 0.000, 0.000, 23:11:48.219, 1574395908219
61, 15198.74, -1933.56, -20556.52, -19402.30, -23397.89, -19559.83, -21449.09, -13677.70, 0.000, 0.000, 0.000, 23:11:48.219, 1574395908219
62, 15220.26, -1879.76, -20590.02, -20506.94, -23405.54, -19663.63, -21419.36, -13837.32, 0.000, 0.000, 0.000, 23:11:48.228, 1574395908228
63, 15204.13, -1912.66, -20420.71, -18984.25, -23338.26, -19387.59, -21414.76, -13532.26, 0.000, 0.000, 0.000, 23:11:48.234, 1574395908234
64, 15183.85, -1970.98, -20356.94, -17671.65, -23319.28, -19244.11, -21439.55, -13325.75, 0.204, 0.904, 0.404, 23:11:48.234, 1574395908234
65, 15194.07, -1946.17, -20517.34, -19013.42, -23382.63, -19499.59, -21447.21, -13605.82, 0.000, 0.000, 0.000, 23:11:48.243, 1574395908243
66, 15207.95, -1891.78, -20608.24, -20518.23, -23418.23, -19687.21, -21431.79, -13858.01, 0.000, 0.000, 0.000, 23:11:48.243, 1574395908243
67, 15202.23, -1909.20, -20459.91, -19370.96, -23361.86, -19454.78, -21427.54, -13616.95, 0.000, 0.000, 0.000, 23:11:48.250, 1574395908250
68, 15188.66, -1962.35, -20345.07, -17705.06, -23318.50, -19230.81, -21443.26, -13328.88, 0.000, 0.000, 0.000, 23:11:48.251, 1574395908251
69, 15183.00, -1957.07, -20486.42, -18633.53, -23376.33, -19438.66, -21460.98, -13538.54, 0.000, 0.000, 0.000, 23:11:48.258, 1574395908258
70, 15191.50, -1907.92, -20625.12, -20433.00, -23437.68, -19696.51, -21458.95, -13866.84, 0.000, 0.000, 0.000, 23:11:48.258, 1574395908258
71, 15199.88, -1903.18, -20503.97, -19735.25, -23385.45, -19513.88, -21435.14, -13689.57, 0.000, 0.000, 0.000, 23:11:48.264, 1574395908264
72, 15192.32, -1948.02, -20346.84, -17851.27, -23319.24, -19232.04, -21435.28, -13338.38, 0.000, 0.000, 0.000, 23:11:48.265, 1574395908265
73, 15193.33, -1957.03, -20445.52, -18298.66, -23361.44, -19375.54, -21458.19, -13468.80, 0.000, 0.000, 0.000, 23:11:48.272, 1574395908272
74, 15211.77, -1898.58, -20604.75, -20225.89, -23422.55, -19661.73, -21447.26, -13821.60, 0.208, 0.904, 0.406, 23:11:48.272, 1574395908272
75, 15211.46, -1885.12, -20528.27, -20040.06, -23389.27, -19560.48, -21428.17, -13744.33, 0.000, 0.000, 0.000, 23:11:48.280, 1574395908280
76, 15199.66, -1937.72, -20352.51, -18090.45, -23320.89, -19261.86, -21435.08, -13383.87, 0.000, 0.000, 0.000, 23:11:48.280, 1574395908280
77, 15192.70, -1961.50, -20408.51, -18009.74, -23347.31, -19321.85, -21457.14, -13412.30, 0.000, 0.000, 0.000, 23:11:48.287, 1574395908287
78, 15204.86, -1916.59, -20592.68, -19946.99, -23417.41, -19632.43, -21453.16, -13780.39, 0.000, 0.000, 0.000, 23:11:48.296, 1574395908296
79, 15207.50, -1889.50, -20557.75, -20287.85, -23402.12, -19615.98, -21431.43, -13804.91, 0.000, 0.000, 0.000, 23:11:48.297, 1574395908297
80, 15194.74, -1933.02, -20380.30, -18402.91, -23330.24, -19307.53, -21431.57, -13441.47, 0.000, 0.000, 0.000, 23:11:48.311, 1574395908311
81, 15176.90, -1970.33, -20392.19, -17808.97, -23336.47, -19283.83, -21457.38, -13372.85, 0.000, 0.000, 0.000, 23:11:48.311, 1574395908311
82, 15194.33, -1927.55, -20570.15, -19615.42, -23406.75, -19594.12, -21458.21, -13731.28, 0.000, 0.000, 0.000, 23:11:48.311, 1574395908311
83, 15211.41, -1881.37, -20583.77, -20456.29, -23405.29, -19654.31, -21432.33, -13841.07, 0.000, 0.000, 0.000, 23:11:48.311, 1574395908311
84, 15196.06, -1929.36, -20415.79, -18771.49, -23343.36, -19364.16, -21437.04, -13511.20, 0.208, 0.902, 0.408, 23:11:48.321, 1574395908321
85, 15177.26, -1974.17, -20369.12, -17698.96, -23327.15, -19257.48, -21455.57, -13346.49, 0.000, 0.000, 0.000, 23:11:48.321, 1574395908321
86, 15189.55, -1945.12, -20538.21, -19242.04, -23390.56, -19541.04, -21458.10, -13657.41, 0.000, 0.000, 0.000, 23:11:48.324, 1574395908324
87, 15198.31, -1896.93, -20608.51, -20531.60, -23413.92, -19690.21, -21436.89, -13869.06, 0.000, 0.000, 0.000, 23:11:48.325, 1574395908325
88, 15186.80, -1919.14, -20446.82, -19163.69, -23353.19, -19427.91, -21431.95, -13583.42, 0.000, 0.000, 0.000, 23:11:48.333, 1574395908333
89, 15172.54, -1976.21, -20358.50, -17686.20, -23321.61, -19239.29, -21450.97, -13332.05, 0.000, 0.000, 0.000, 23:11:48.333, 1574395908333
90, 15180.63, -1959.85, -20507.23, -18862.53, -23380.66, -19475.54, -21461.52, -13585.17, 0.000, 0.000, 0.000, 23:11:48.347, 1574395908347
91, 15188.90, -1906.47, -20611.57, -20494.58, -23419.15, -19681.13, -21441.16, -13858.44, 0.000, 0.000, 0.000, 23:11:48.348, 1574395908348
92, 15177.30, -1924.08, -20478.78, -19532.85, -23370.11, -19476.57, -21433.71, -13648.98, 0.000, 0.000, 0.000, 23:11:48.348, 1574395908348
93, 15146.19, -1989.62, -20350.03, -17769.73, -23322.41, -19241.12, -21451.55, -13345.24, 0.000, 0.000, 0.000, 23:11:48.360, 1574395908360
94, 15125.98, -2005.33, -20479.81, -18509.12, -23375.14, -19425.61, -21469.01, -13523.45, 0.202, 0.900, 0.404, 23:11:48.360, 1574395908360
95, 15108.10, -1973.57, -20639.96, -20384.16, -23441.32, -19702.17, -21462.64, -13867.09, 0.000, 0.000, 0.000, 23:11:48.361, 1574395908361
96, 15106.05, -1974.42, -20526.48, -19892.83, -23386.09, -19551.54, -21432.06, -13725.22, 0.000, 0.000, 0.000, 23:11:48.361, 1574395908361
97, 15076.05, -2041.41, -20370.33, -17965.30, -23318.14, -19264.65, -21441.09, -13374.59, 0.000, 0.000, 0.000, 23:11:48.370, 1574395908370
98, 15044.22, -2074.62, -20454.88, -18196.04, -23357.53, -19376.48, -21464.98, -13462.39, 0.000, 0.000, 0.000, 23:11:48.370, 1574395908370
99, 15035.88, -2040.31, -20624.00, -20149.29, -23425.72, -19679.39, -21456.91, -13824.75, 0.000, 0.000, 0.000, 23:11:48.376, 1574395908376
100, 15024.35, -2030.28, -20563.58, -20178.13, -23399.30, -19608.56, -21436.53, -13791.34, 0.000, 0.000, 0.000, 23:11:48.376, 1574395908376
101, 14988.77, -2098.78, -20391.70, -18230.51, -23331.22, -19298.07, -21442.25, -13420.93, 0.000, 0.000, 0.000, 23:11:48.384, 1574395908384
102, 14977.84, -2136.65, -20423.82, -17942.53, -23347.76, -19321.79, -21462.05, -13408.10, 0.000, 0.000, 0.000, 23:11:48.384, 1574395908384
103, 14976.25, -2101.47, -20609.13, -19846.31, -23420.89, -19637.53, -21461.05, -13775.54, 0.000, 0.000, 0.000, 23:11:48.393, 1574395908393
104, 14987.92, -2067.31, -20595.86, -20398.89, -23408.53, -19652.19, -21432.48, -13832.15, 0.206, 0.900, 0.404, 23:11:48.393, 1574395908393
105, 14982.71, -2108.04, -20414.34, -18578.81, -23334.13, -19343.36, -21427.99, -13475.40, 0.000, 0.000, 0.000, 23:11:48.400, 1574395908400
106, 14969.63, -2153.99, -20412.19, -17783.63, -23342.02, -19293.82, -21461.03, -13381.70, 0.000, 0.000, 0.000, 23:11:48.400, 1574395908400
107, 14991.22, -2110.54, -20585.35, -19495.71, -23412.65, -19588.38, -21461.52, -13716.10, 0.000, 0.000, 0.000, 23:11:48.406, 1574395908406
108, 15012.19, -2052.76, -20614.10, -20517.11, -23420.25, -19673.45, -21431.79, -13858.33, 0.000, 0.000, 0.000, 23:11:48.407, 1574395908407
109, 15012.50, -2078.42, -20443.38, -18941.52, -23353.41, -19388.08, -21426.36, -13536.08, 0.000, 0.000, 0.000, 23:11:48.414, 1574395908414
110, 15018.94, -2116.15, -20380.39, -17692.21, -23325.61, -19250.57, -21441.56, -13334.74, 0.000, 0.000, 0.000, 23:11:48.421, 1574395908421
111, 15039.88, -2086.13, -20548.00, -19094.56, -23393.11, -19517.30, -21452.58, -13627.54, 0.000, 0.000, 0.000, 23:11:48.421, 1574395908421
112, 15060.78, -2025.85, -20633.19, -20542.01, -23430.86, -19700.18, -21442.10, -13878.98, 0.000, 0.000, 0.000, 23:11:48.429, 1574395908429
113, 15058.91, -2037.56, -20484.61, -19339.20, -23376.41, -19464.75, -21437.65, -13627.08, 0.000, 0.000, 0.000, 23:11:48.429, 1574395908429
114, 15050.57, -2082.78, -20377.66, -17725.80, -23334.19, -19247.94, -21453.45, -13340.21, 0.204, 0.896, 0.408, 23:11:48.437, 1574395908437
115, 15053.09, -2075.34, -20516.51, -18726.22, -23390.16, -19460.10, -21468.45, -13559.66, 0.000, 0.000, 0.000, 23:11:48.437, 1574395908437
116, 15066.53, -2025.45, -20652.68, -20487.54, -23447.36, -19711.11, -21464.76, -13880.10, 0.000, 0.000, 0.000, 23:11:48.445, 1574395908445
117, 15096.23, -2003.19, -20506.50, -19700.65, -23376.88, -19514.23, -21430.96, -13683.38, 0.000, 0.000, 0.000, 23:11:48.445, 1574395908445
118, 15080.23, -2056.29, -20360.07, -17839.66, -23317.58, -19251.38, -21441.27, -13352.75, 0.000, 0.000, 0.000, 23:11:48.451, 1574395908451
119, 15084.39, -2064.68, -20471.87, -18372.93, -23362.69, -19408.02, -21460.67, -13498.80, 0.000, 0.000, 0.000, 23:11:48.452, 1574395908452
120, 15110.52, -2000.53, -20627.29, -20290.33, -23417.50, -19687.44, -21441.63, -13840.07, 0.000, 0.000, 0.000, 23:11:48.459, 1574395908459
121, 15125.34, -1974.51, -20530.14, -20009.71, -23375.41, -19565.60, -21416.64, -13740.35, 0.000, 0.000, 0.000, 23:11:48.460, 1574395908460
122, 15113.56, -2030.21, -20367.29, -18067.47, -23317.81, -19277.33, -21436.57, -13393.21, 0.000, 0.000, 0.000, 23:11:48.467, 1574395908467
123, 15112.73, -2049.68, -20440.94, -18082.31, -23349.44, -19361.08, -21462.93, -13446.54, 0.000, 0.000, 0.000, 23:11:48.467, 1574395908467
124, 15129.72, -1990.02, -20618.03, -20026.76, -23416.42, -19658.63, -21453.47, -13807.70, 0.200, 0.898, 0.404, 23:11:48.473, 1574395908473
125, 15141.38, -1959.82, -20569.46, -20278.04, -23398.34, -19621.95, -21428.88, -13807.57, 0.000, 0.000, 0.000, 23:11:48.481, 1574395908481
126, 15126.74, -2011.23, -20384.92, -18369.31, -23327.35, -19312.85, -21431.23, -13439.72, 0.000, 0.000, 0.000, 23:11:48.482, 1574395908482
127, 15121.65, -2038.19, -20400.44, -17858.46, -23335.76, -19301.24, -21453.79, -13388.45, 0.000, 0.000, 0.000, 23:11:48.489, 1574395908489
128, 15140.76, -1988.90, -20576.46, -19688.22, -23403.19, -19601.67, -21445.69, -13732.80, 0.000, 0.000, 0.000, 23:11:48.489, 1574395908489
129, 15156.54, -1955.93, -20595.72, -20457.88, -23417.54, -19658.96, -21435.52, -13842.86, 0.000, 0.000, 0.000, 23:11:48.497, 1574395908497
130, 15142.55, -2000.01, -20426.41, -18739.23, -23358.62, -19371.85, -21447.10, -13513.22, 0.000, 0.000, 0.000, 23:11:48.497, 1574395908497
131, 15131.91, -2027.97, -20380.99, -17726.54, -23333.07, -19270.85, -21454.84, -13353.42, 0.000, 0.000, 0.000, 23:11:48.503, 1574395908503
132, 15153.30, -1990.29, -20555.78, -19315.55, -23398.36, -19556.01, -21457.05, -13671.40, 0.000, 0.000, 0.000, 23:11:48.503, 1574395908503
133, 15166.53, -1938.45, -20613.98, -20538.66, -23422.50, -19687.75, -21439.55, -13866.71, 0.000, 0.000, 0.000, 23:11:48.511, 1574395908511
134, 15160.88, -1967.27, -20446.48, -19105.94, -23352.50, -19417.76, -21427.25, -13570.08, 0.000, 0.000, 0.000, 23:11:48.512, 1574395908512
135, 15147.64, -2017.78, -20364.94, -17685.84, -23318.14, -19251.40, -21442.74, -13334.65, 0.198, 0.900, 0.406, 23:11:48.520, 1574395908520
136, 15147.44, -1999.07, -20525.25, -18935.10, -23384.69, -19499.15, -21457.90, -13607.58, 0.000, 0.000, 0.000, 23:11:48.520, 1574395908520
137, 15169.21, -1938.21, -20623.84, -20522.28, -23420.96, -19698.44, -21437.38, -13873.73, 0.000, 0.000, 0.000, 23:11:48.528, 1574395908528
138, 15172.30, -1944.22, -20473.13, -19476.71, -23357.64, -19477.15, -21420.48, -13645.00, 0.000, 0.000, 0.000, 23:11:48.528, 1574395908528
139, 15159.94, -2002.52, -20359.18, -17753.23, -23318.23, -19253.66, -21444.42, -13354.90, 0.000, 0.000, 0.000, 23:11:48.534, 1574395908534
140, 15168.25, -1996.30, -20484.46, -18571.82, -23370.51, -19450.20, -21462.41, -13551.73, 0.000, 0.000, 0.000, 23:11:48.541, 1574395908541
141, 15187.52, -1933.58, -20618.30, -20401.80, -23417.74, -19702.26, -21443.17, -13872.41, 0.000, 0.000, 0.000, 23:11:48.541, 1574395908541
142, 15191.61, -1929.89, -20509.54, -19826.47, -23374.02, -19545.08, -21428.66, -13722.41, 0.000, 0.000, 0.000, 23:11:48.549, 1574395908549
143, 15174.84, -1984.68, -20358.66, -17923.46, -23315.46, -19269.84, -21442.14, -13380.63, 0.000, 0.000, 0.000, 23:11:48.549, 1574395908549
144, 15174.91, -1993.80, -20444.76, -18240.63, -23347.89, -19387.77, -21454.70, -13477.23, 0.000, 0.000, 0.000, 23:11:48.556, 1574395908556
145, 15196.48, -1937.94, -20605.92, -20183.45, -23411.08, -19672.53, -21441.07, -13822.41, 0.208, 0.904, 0.398, 23:11:48.557, 1574395908557
146, 15199.43, -1922.67, -20540.85, -20128.62, -23387.17, -19592.58, -21425.33, -13770.06, 0.000, 0.000, 0.000, 23:11:48.565, 1574395908565
147, 15178.98, -1978.33, -20373.30, -18182.41, -23325.54, -19294.83, -21438.29, -13408.23, 0.000, 0.000, 0.000, 23:11:48.565, 1574395908565
148, 15175.25, -2000.30, -20417.11, -17973.51, -23346.64, -19330.53, -21459.84, -13412.99, 0.000, 0.000, 0.000, 23:11:48.573, 1574395908573
149, 15190.54, -1947.95, -20592.82, -19883.44, -23416.16, -19635.13, -21455.13, -13777.15, 0.000, 0.000, 0.000, 23:11:48.573, 1574395908573
150, 15209.00, -1911.57, -20564.70, -20344.80, -23402.41, -19632.56, -21431.63, -13822.54, 0.000, 0.000, 0.000, 23:11:48.579, 1574395908579
151, 15194.00, -1961.30, -20387.05, -18498.46, -23335.98, -19333.23, -21435.86, -13473.45, 0.000, 0.000, 0.000, 23:11:48.579, 1574395908579
152, 15173.06, -2012.71, -20398.85, -17789.44, -23348.30, -19303.46, -21470.37, -13396.23, 0.000, 0.000, 0.000, 23:11:48.587, 1574395908587
153, 15199.50, -1955.87, -20562.96, -19533.23, -23402.07, -19591.10, -21454.23, -13727.64, 0.000, 0.000, 0.000, 23:11:48.587, 1574395908587
154, 15222.57, -1902.11, -20579.70, -20482.15, -23398.10, -19667.14, -21419.92, -13857.57, 0.000, 0.000, 0.000, 23:11:48.593, 1574395908593
155, 15212.80, -1937.63, -20403.95, -18864.92, -23330.57, -19381.80, -21416.97, -13534.16, 0.204, 0.904, 0.406, 23:11:48.601, 1574395908601
156, 15191.68, -1988.05, -20358.46, -17684.95, -23317.38, -19262.11, -21443.64, -13352.53, 0.000, 0.000, 0.000, 23:11:48.601, 1574395908601
157, 15199.28, -1958.53, -20526.46, -19145.72, -23383.03, -19533.61, -21448.80, -13650.43, 0.000, 0.000, 0.000, 23:11:48.608, 1574395908608
158, 15212.46, -1912.64, -20611.08, -20537.05, -23420.80, -19703.82, -21434.65, -13883.50, 0.000, 0.000, 0.000, 23:11:48.609, 1574395908609
159, 15216.26, -1926.54, -20453.39, -19256.88, -23356.88, -19451.65, -21426.09, -13612.12, 0.000, 0.000, 0.000, 23:11:48.619, 1574395908619
160, 15201.96, -1975.94, -20359.44, -17691.63, -23321.45, -19251.09, -21444.53, -13344.80, 0.000, 0.000, 0.000, 23:11:48.619, 1574395908619
161, 15201.82, -1966.08, -20493.67, -18767.06, -23375.28, -19462.96, -21448.82, -13571.46, 0.000, 0.000, 0.000, 23:11:48.624, 1574395908624
162, 15216.15, -1915.97, -20610.39, -20470.24, -23421.25, -19694.17, -21434.74, -13870.58, 0.000, 0.000, 0.000, 23:11:48.625, 1574395908625
163, 15211.12, -1921.29, -20481.53, -19618.39, -23369.22, -19494.86, -21418.13, -13670.71, 0.000, 0.000, 0.000, 23:11:48.631, 1574395908631
164, 15191.21, -1983.27, -20356.56, -17807.10, -23325.50, -19251.94, -21442.34, -13357.94, 0.000, 0.000, 0.000, 23:11:48.631, 1574395908631
165, 15196.35, -1981.26, -20469.91, -18418.17, -23369.06, -19411.71, -21453.74, -13507.38, 0.202, 0.902, 0.404, 23:11:48.639, 1574395908639
166, 15215.70, -1924.66, -20618.90, -20317.80, -23425.41, -19686.01, -21438.34, -13846.95, 0.000, 0.000, 0.000, 23:11:48.639, 1574395908639
167, 15222.97, -1914.07, -20526.99, -19956.24, -23387.81, -19560.14, -21420.28, -13740.18, 0.000, 0.000, 0.000, 23:11:48.646, 1574395908646
168, 15212.28, -1961.07, -20359.13, -18011.79, -23319.22, -19264.90, -21425.71, -13382.53, 0.000, 0.000, 0.000, 23:11:48.646, 1574395908646
169, 15204.06, -1976.18, -20422.92, -18106.07, -23344.63, -19348.21, -21440.46, -13439.03, 0.000, 0.000, 0.000, 23:11:48.654, 1574395908654
170, 15222.19, -1923.88, -20596.51, -20057.16, -23412.58, -19654.29, -21431.57, -13802.47, 0.000, 0.000, 0.000, 23:11:48.655, 1574395908655
171, 15227.42, -1904.30, -20552.67, -20227.03, -23397.78, -19616.49, -21417.44, -13795.07, 0.000, 0.000, 0.000, 23:11:48.660, 1574395908660
172, 15211.84, -1954.79, -20373.05, -18307.35, -23329.25, -19310.74, -21425.31, -13433.42, 0.000, 0.000, 0.000, 23:11:48.669, 1574395908669
173, 15202.45, -1989.64, -20399.16, -17882.67, -23339.78, -19321.21, -21448.00, -13400.09, 0.000, 0.000, 0.000, 23:11:48.670, 1574395908670
174, 15220.40, -1935.44, -20576.28, -19742.58, -23406.68, -19621.39, -21441.49, -13753.23, 0.000, 0.000, 0.000, 23:11:48.677, 1574395908677
175, 15227.08, -1898.47, -20574.38, -20416.17, -23406.79, -19653.98, -21419.97, -13836.96, 0.200, 0.900, 0.406, 23:11:48.677, 1574395908677
176, 15213.45, -1941.83, -20397.44, -18652.13, -23337.63, -19352.52, -21421.51, -13493.55, 0.000, 0.000, 0.000, 23:11:48.683, 1574395908683
177, 15205.42, -1989.06, -20379.52, -17729.94, -23331.67, -19275.07, -21445.47, -13361.89, 0.000, 0.000, 0.000, 23:11:48.683, 1574395908683
178, 15221.00, -1945.00, -20548.56, -19372.55, -23393.31, -19559.05, -21437.98, -13681.52, 0.000, 0.000, 0.000, 23:11:48.691, 1574395908691
179, 15226.14, -1894.29, -20595.48, -20523.01, -23411.87, -19682.88, -21416.68, -13862.60, 0.000, 0.000, 0.000, 23:11:48.691, 1574395908691
180, 15217.56, -1926.81, -20424.40, -19031.82, -23345.99, -19411.48, -21414.78, -13565.03, 0.000, 0.000, 0.000, 23:11:48.699, 1574395908699
181, 15204.71, -1980.74, -20358.62, -17678.20, -23326.88, -19256.12, -21438.74, -13345.98, 0.000, 0.000, 0.000, 23:11:48.699, 1574395908699
182, 15218.99, -1951.13, -20512.15, -18989.39, -23385.71, -19504.60, -21440.37, -13615.77, 0.000, 0.000, 0.000, 23:11:48.707, 1574395908707
183, 15233.83, -1896.70, -20605.36, -20515.82, -23417.68, -19694.84, -21419.16, -13869.59, 0.000, 0.000, 0.000, 23:11:48.708, 1574395908708
184, 15227.15, -1912.95, -20463.45, -19409.52, -23364.08, -19474.56, -21415.52, -13637.27, 0.000, 0.000, 0.000, 23:11:48.714, 1574395908714
185, 15205.20, -1973.37, -20358.66, -17732.02, -23327.02, -19262.87, -21442.34, -13357.56, 0.200, 0.902, 0.406, 23:11:48.715, 1574395908715
186, 15202.56, -1972.25, -20500.01, -18630.22, -23387.48, -19464.50, -21461.76, -13566.41, 0.000, 0.000, 0.000, 23:11:48.722, 1574395908722
187, 15222.68, -1911.45, -20626.46, -20426.83, -23434.93, -19706.26, -21441.16, -13877.73, 0.000, 0.000, 0.000, 23:11:48.728, 1574395908728
188, 15239.04, -1891.20, -20493.22, -19758.18, -23370.29, -19519.82, -21405.51, -13693.82, 0.000, 0.000, 0.000, 23:11:48.729, 1574395908729
189, 15212.33, -1959.09, -20350.35, -17871.38, -23317.09, -19253.28, -21425.02, -13363.91, 0.000, 0.000, 0.000, 23:11:48.736, 1574395908736
190, 15207.39, -1972.43, -20453.63, -18278.68, -23359.16, -19390.25, -21446.05, -13487.42, 0.000, 0.000, 0.000, 23:11:48.736, 1574395908736
191, 15230.84, -1911.48, -20612.40, -20220.19, -23419.51, -19678.34, -21430.88, -13840.45, 0.000, 0.000, 0.000, 23:11:48.744, 1574395908744
192, 15233.79, -1899.61, -20535.57, -20079.40, -23387.50, -19590.05, -21412.88, -13776.14, 0.000, 0.000, 0.000, 23:11:48.744, 1574395908744
193, 15211.57, -1956.52, -20370.78, -18128.81, -23324.87, -19294.14, -21426.07, -13419.07, 0.000, 0.000, 0.000, 23:11:48.752, 1574395908752
194, 15207.39, -1976.50, -20424.64, -18012.18, -23347.34, -19350.11, -21448.49, -13442.99, 0.000, 0.000, 0.000, 23:11:48.752, 1574395908752
195, 15228.29, -1925.71, -20599.97, -19945.76, -23417.30, -19659.52, -21441.87, -13804.37, 0.198, 0.906, 0.404, 23:11:48.759, 1574395908759
196, 15236.04, -1898.13, -20571.07, -20320.46, -23406.52, -19644.08, -21419.59, -13830.50, 0.000, 0.000, 0.000, 23:11:48.760, 1574395908760
197, 15210.96, -1946.68, -20391.74, -18437.86, -23338.73, -19329.32, -21424.32, -13472.16, 0.000, 0.000, 0.000, 23:11:48.767, 1574395908767
198, 15203.81, -1979.94, -20392.30, -17801.51, -23338.19, -19302.99, -21442.45, -13395.38, 0.000, 0.000, 0.000, 23:11:48.767, 1574395908767
199, 15226.25, -1936.71, -20572.48, -19592.91, -23407.39, -19605.68, -21439.77, -13744.60, 0.000, 0.000, 0.000, 23:11:48.775, 1574395908775
200, 15230.28, -1897.01, -20594.32, -20472.21, -23418.06, -19675.97, -21419.23, -13868.14, 0.000, 0.000, 0.000, 23:11:48.775, 1574395908775
201, 15222.83, -1933.22, -20416.66, -18807.07, -23351.22, -19386.27, -21419.65, -13537.74, 0.000, 0.000, 0.000, 23:11:48.780, 1574395908780
202, 15213.85, -1982.02, -20376.21, -17697.39, -23336.47, -19273.24, -21441.89, -13367.01, 0.000, 0.000, 0.000, 23:11:48.788, 1574395908788
203, 15233.03, -1950.88, -20546.71, -19212.75, -23400.40, -19550.13, -21444.40, -13674.93, 0.000, 0.000, 0.000, 23:11:48.788, 1574395908788
204, 15260.54, -1890.94, -20608.11, -20523.48, -23422.08, -19689.03, -21415.18, -13874.93, 0.000, 0.000, 0.000, 23:11:48.796, 1574395908796
205, 15241.70, -1927.70, -20455.47, -19191.68, -23371.59, -19445.46, -21421.20, -13609.26, 0.198, 0.910, 0.396, 23:11:48.796, 1574395908796
206, 15208.86, -1997.82, -20382.71, -17704.86, -23353.64, -19278.74, -21461.25, -13381.30, 0.000, 0.000, 0.000, 23:11:48.803, 1574395908803
207, 15231.77, -1963.58, -20520.11, -18837.96, -23394.83, -19496.93, -21455.24, -13615.81, 0.000, 0.000, 0.000, 23:11:48.803, 1574395908803
208, 15248.65, -1902.96, -20625.94, -20495.03, -23432.29, -19713.12, -21432.37, -13893.37, 0.000, 0.000, 0.000, 23:11:48.813, 1574395908813
209, 15240.65, -1913.44, -20494.18, -19569.94, -23384.10, -19506.43, -21421.73, -13682.20, 0.000, 0.000, 0.000, 23:11:48.813, 1574395908813
210, 15222.01, -1972.38, -20357.12, -17784.99, -23330.57, -19258.75, -21434.70, -13366.19, 0.000, 0.000, 0.000, 23:11:48.820, 1574395908820
211, 15223.84, -1965.90, -20471.54, -18468.89, -23373.49, -19421.36, -21441.42, -13526.43, 0.000, 0.000, 0.000, 23:11:48.820, 1574395908820
212, 15240.76, -1907.56, -20617.72, -20342.72, -23429.95, -19690.84, -21423.68, -13861.61, 0.000, 0.000, 0.000, 23:11:48.827, 1574395908827
213, 15244.76, -1900.32, -20515.71, -19896.43, -23386.41, -19548.99, -21403.78, -13734.90, 0.000, 0.000, 0.000, 23:11:48.828, 1574395908828
214, 15220.67, -1962.68, -20358.46, -17967.27, -23325.25, -19269.01, -21418.22, -13382.79, 0.000, 0.000, 0.000, 23:11:48.835, 1574395908835
215, 15207.61, -1985.73, -20444.60, -18162.85, -23364.37, -19379.92, -21444.64, -13469.88, 0.000, 0.000, 0.000, 23:11:48.835, 1574395908835
216, 15228.27, -1926.12, -20612.49, -20111.25, -23430.77, -19667.75, -21432.01, -13829.94, 0.200, 0.914, 0.400, 23:11:48.841, 1574395908841
217, 15232.00, -1897.26, -20553.41, -20175.89, -23405.94, -19608.74, -21409.51, -13800.10, 0.000, 0.000, 0.000, 23:11:48.848, 1574395908848
218, 15222.01, -1944.53, -20371.65, -18233.30, -23333.23, -19293.96, -21407.18, -13421.24, 0.000, 0.000, 0.000, 23:11:48.848, 1574395908848
219, 15211.84, -1979.74, -20410.58, -17907.46, -23353.06, -19321.07, -21436.24, -13409.55, 0.000, 0.000, 0.000, 23:11:48.856, 1574395908856
220, 15227.48, -1930.50, -20588.04, -19789.92, -23421.14, -19629.93, -21434.56, -13774.22, 0.000, 0.000, 0.000, 23:11:48.856, 1574395908856
221, 15244.63, -1889.01, -20578.29, -20377.53, -23415.26, -19648.90, -21409.46, -13838.77, 0.000, 0.000, 0.000, 23:11:48.864, 1574395908864
222, 15226.75, -1932.29, -20400.93, -18574.39, -23347.51, -19343.06, -21410.73, -13486.24, 0.000, 0.000, 0.000, 23:11:48.864, 1574395908864
223, 15202.31, -1986.89, -20398.80, -17741.58, -23359.90, -19287.81, -21449.72, -13384.69, 0.000, 0.000, 0.000, 23:11:48.872, 1574395908872
224, 15231.39, -1934.14, -20564.03, -19424.65, -23421.34, -19580.78, -21444.42, -13714.54, 0.000, 0.000, 0.000, 23:11:48.872, 1574395908872
225, 15253.57, -1880.30, -20595.39, -20488.68, -23426.28, -19681.40, -21414.51, -13872.79, 0.000, 0.000, 0.000, 23:11:48.879, 1574395908879
226, 15240.74, -1916.97, -20427.15, -18951.13, -23361.37, -19406.48, -21412.61, -13563.64, 0.196, 0.912, 0.398, 23:11:48.880, 1574395908880
227, 15214.74, -1971.69, -20369.72, -17673.03, -23342.53, -19267.47, -21438.21, -13364.22, 0.000, 0.000, 0.000, 23:11:48.886, 1574395908886
228, 15214.23, -1954.24, -20535.24, -19051.75, -23409.92, -19533.44, -21448.35, -13651.86, 0.000, 0.000, 0.000, 23:11:48.886, 1574395908886
229, 15229.70, -1900.81, -20627.73, -20537.45, -23445.35, -19723.45, -21429.53, -13898.56, 0.000, 0.000, 0.000, 23:11:48.894, 1574395908894
230, 15228.65, -1912.93, -20471.94, -19352.41, -23380.08, -19477.47, -21418.36, -13647.53, 0.000, 0.000, 0.000, 23:11:48.895, 1574395908895
231, 15207.01, -1973.37, -20361.46, -17708.88, -23334.37, -19259.07, -21431.84, -13362.86, 0.000, 0.000, 0.000, 23:11:48.901, 1574395908901
232, 15209.31, -1967.09, -20497.73, -18673.03, -23385.42, -19460.97, -21440.40, -13575.35, 0.000, 0.000, 0.000, 23:11:48.901, 1574395908901
233, 15231.35, -1907.10, -20621.07, -20438.99, -23434.22, -19701.68, -21420.44, -13880.10, 0.000, 0.000, 0.000, 23:11:48.908, 1574395908908
234, 15237.25, -1900.46, -20490.40, -19700.36, -23380.73, -19520.74, -21398.15, -13697.08, 0.000, 0.000, 0.000, 23:11:48.915, 1574395908915
235, 15218.36, -1958.66, -20349.05, -17844.78, -23328.38, -19256.36, -21413.66, -13362.32, 0.000, 0.000, 0.000, 23:11:48.916, 1574395908916
236, 15206.27, -1977.64, -20467.47, -18336.21, -23382.09, -19410.23, -21443.95, -13507.92, 0.196, 0.906, 0.402, 23:11:48.925, 1574395908925
237, 15220.67, -1924.53, -20628.67, -20259.11, -23444.16, -19694.50, -21430.40, -13854.15, 0.000, 0.000, 0.000, 23:11:48.926, 1574395908926
238, 15227.68, -1905.80, -20540.13, -20027.19, -23407.95, -19585.69, -21407.96, -13767.51, 0.000, 0.000, 0.000, 23:11:48.931, 1574395908931
239, 15214.63, -1959.38, -20367.58, -18076.17, -23340.58, -19287.77, -21419.03, -13410.17, 0.000, 0.000, 0.000, 23:11:48.931, 1574395908931
240, 15206.05, -1981.28, -20428.82, -18056.45, -23369.35, -19360.39, -21443.62, -13450.74, 0.000, 0.000, 0.000, 23:11:48.938, 1574395908938
241, 15229.27, -1921.60, -20597.71, -19987.22, -23428.85, -19659.52, -21424.55, -13804.57, 0.000, 0.000, 0.000, 23:11:48.938, 1574395908938
242, 15228.33, -1900.86, -20566.04, -20280.27, -23417.34, -19636.03, -21410.36, -13825.38, 0.000, 0.000, 0.000, 23:11:48.946, 1574395908946
243, 15215.26, -1950.84, -20386.15, -18380.69, -23349.35, -19323.89, -21414.40, -13460.71, 0.000, 0.000, 0.000, 23:11:48.946, 1574395908946
244, 15207.99, -1984.41, -20399.45, -17829.18, -23356.34, -19323.35, -21437.58, -13406.46, 0.000, 0.000, 0.000, 23:11:48.954, 1574395908954
245, 15210.99, -1946.08, -20588.91, -19664.46, -23431.47, -19653.24, -21442.07, -13770.60, 0.000, 0.000, 0.000, 23:11:48.954, 1574395908954
246, 15218.72, -1909.02, -20603.08, -20459.69, -23438.51, -19678.27, -21419.52, -13870.87, 0.200, 0.904, 0.404, 23:11:48.965, 1574395908965
247, 15216.98, -1938.12, -20416.40, -18741.51, -23362.65, -19378.78, -21413.95, -13527.77, 0.000, 0.000, 0.000, 23:11:48.965, 1574395908965
248, 15211.93, -1977.86, -20373.57, -17697.80, -23340.27, -19274.33, -21427.05, -13364.87, 0.000, 0.000, 0.000, 23:11:48.967, 1574395908967
249, 15219.84, -1946.68, -20549.48, -19280.03, -23405.81, -19555.99, -21426.96, -13678.35, 0.000, 0.000, 0.000, 23:11:48.976, 1574395908976
250, 15238.37, -1891.47, -20600.44, -20524.36, -23427.71, -19690.93, -21402.11, -13871.69, 0.000, 0.000, 0.000, 23:11:48.976, 1574395908976
251, 15232.24, -1917.58, -20429.34, -19102.56, -23362.47, -19423.24, -21395.40, -13581.34, 0.000, 0.000, 0.000, 23:11:48.983, 1574395908983
252, 15211.64, -1978.00, -20351.46, -17662.59, -23333.37, -19252.05, -21418.89, -13346.27, 0.000, 0.000, 0.000, 23:11:48.983, 1574395908983
253, 15213.25, -1963.98, -20513.94, -18903.09, -23397.22, -19503.06, -21432.55, -13613.89, 0.000, 0.000, 0.000, 23:11:48.990, 1574395908990
254, 15234.70, -1903.39, -20613.11, -20501.82, -23431.80, -19703.06, -21408.41, -13882.09, 0.000, 0.000, 0.000, 23:11:48.990, 1574395908990
255, 15232.87, -1909.26, -20464.03, -19479.08, -23370.07, -19481.24, -21388.21, -13647.57, 0.000, 0.000, 0.000, 23:11:48.998, 1574395908998
0, 15213.16, -1970.82, -20345.83, -17741.00, -23329.21, -19246.57, -21412.05, -13347.54, 0.194, 0.908, 0.394, 23:11:48.998, 1574395908998
1, 15215.48, -1966.84, -20469.93, -18528.99, -23379.68, -19437.12, -21427.72, -13540.15, 0.000, 0.000, 0.000, 23:11:49.006, 1574395909006
2, 15225.87, -1914.61, -20623.53, -20383.05, -23438.20, -19705.01, -21418.65, -13878.69, 0.000, 0.000, 0.000, 23:11:49.007, 1574395909007
3, 15233.14, -1900.57, -20505.29, -19845.04, -23387.99, -19550.42, -21394.29, -13733.02, 0.000, 0.000, 0.000, 23:11:49.014, 1574395909014
4, 15218.05, -1956.65, -20339.75, -17917.09, -23324.42, -19265.08, -21405.93, -13382.48, 0.000, 0.000, 0.000, 23:11:49.014, 1574395909014
5, 15209.83, -1970.73, -20435.13, -18199.33, -23363.23, -19382.16, -21431.08, -13483.04, 0.000, 0.000, 0.000, 23:11:49.021, 1574395909021
6, 15224.64, -1915.57, -20597.53, -20153.58, -23429.05, -19680.31, -21422.94, -13844.47, 0.000, 0.000, 0.000, 23:11:49.022, 1574395909022
7, 15223.46, -1898.71, -20545.32, -20141.27, -23404.98, -19610.59, -21406.73, -13797.96, 0.000, 0.000, 0.000, 23:11:49.029, 1574395909029
8, 15214.27, -1947.40, -20359.98, -18188.98, -23330.06, -19296.35, -21409.66, -13424.61, 0.000, 0.000, 0.000, 23:11:49.037, 1574395909037
9, 15223.64, -1964.99, -20404.37, -17946.01, -23341.30, -19324.65, -21425.46, -13417.33, 0.000, 0.000, 0.000, 23:11:49.037, 1574395909037
10, 15238.39, -1916.57, -20577.06, -19857.56, -23419.58, -19632.52, -21424.50, -13773.19, 0.196, 0.906, 0.394, 23:11:49.044, 1574395909044
11, 15243.73, -1881.44, -20544.83, -20357.21, -23394.81, -19629.84, -21398.91, -13819.12, 0.000, 0.000, 0.000, 23:11:49.044, 1574395909044
12, 15227.19, -1933.60, -20371.60, -18520.92, -23322.79, -19325.74, -21405.84, -13467.69, 0.000, 0.000, 0.000, 23:11:49.050, 1574395909050
13, 15208.64, -1982.40, -20374.31, -17778.87, -23327.89, -19285.62, -21438.41, -13374.43, 0.000, 0.000, 0.000, 23:11:49.050, 1574395909050
14, 15214.70, -1940.29, -20545.75, -19497.47, -23394.79, -19576.78, -21436.91, -13710.13, 0.000, 0.000, 0.000, 23:11:49.058, 1574395909058
15, 15226.92, -1895.81, -20579.03, -20486.96, -23406.70, -19666.61, -21416.46, -13848.18, 0.000, 0.000, 0.000, 23:11:49.059, 1574395909059
16, 15200.04, -1944.74, -20420.17, -18903.00, -23354.26, -19393.76, -21430.49, -13540.24, 0.000, 0.000, 0.000, 23:11:49.066, 1574395909066
17, 15195.68, -1985.13, -20346.37, -17680.18, -23322.32, -19251.45, -21443.62, -13340.50, 0.000, 0.000, 0.000, 23:11:49.067, 1574395909067
18, 15218.81, -1945.43, -20501.71, -19107.86, -23373.49, -19504.82, -21436.39, -13617.06, 0.000, 0.000, 0.000, 23:11:49.073, 1574395909073
19, 15234.03, -1892.16, -20583.01, -20527.04, -23402.21, -19671.66, -21418.83, -13848.11, 0.000, 0.000, 0.000, 23:11:49.074, 1574395909074
20, 15225.67, -1911.79, -20428.89, -19267.38, -23340.96, -19427.91, -21412.88, -13585.86, 0.202, 0.902, 0.402, 23:11:49.081, 1574395909081
21, 15209.45, -1969.68, -20332.02, -17692.34, -23308.15, -19241.97, -21437.31, -13320.88, 0.000, 0.000, 0.000, 23:11:49.081, 1574395909081
22, 15215.86, -1955.06, -20481.06, -18737.00, -23365.17, -19454.38, -21450.05, -13550.23, 0.000, 0.000, 0.000, 23:11:49.088, 1574395909088
23, 15235.60, -1893.82, -20603.75, -20452.45, -23407.04, -19673.24, -21433.06, -13847.93, 0.000, 0.000, 0.000, 23:11:49.095, 1574395909095
24, 15233.21, -1897.98, -20474.33, -19648.17, -23366.80, -19502.81, -21424.86, -13662.44, 0.000, 0.000, 0.000, 23:11:49.095, 1574395909095
25, 15219.03, -1954.21, -20336.78, -17796.50, -23299.66, -19219.91, -21432.39, -13326.71, 0.000, 0.000, 0.000, 23:11:49.103, 1574395909103
26, 15218.77, -1953.74, -20414.50, -18367.19, -23340.94, -19371.32, -21445.65, -13468.87, 0.000, 0.000, 0.000, 23:11:49.103, 1574395909103
27, 15234.55, -1897.86, -20569.17, -20281.55, -23404.11, -19658.29, -21437.24, -13821.38, 0.000, 0.000, 0.000, 23:11:49.112, 1574395909112
28, 15237.32, -1885.15, -20500.01, -19970.63, -23375.72, -19553.66, -21424.41, -13726.99, 0.000, 0.000, 0.000, 23:11:49.112, 1574395909112
29, 15222.68, -1936.49, -20346.95, -17999.84, -23311.62, -19244.81, -21434.18, -13363.93, 0.000, 0.000, 0.000, 23:11:49.120, 1574395909120
30, 15215.08, -1962.35, -20411.59, -18063.49, -23348.63, -19330.26, -21460.38, -13424.61, 0.000, 0.000, 0.000, 23:11:49.120, 1574395909120
31, 15230.10, -1902.96, -20557.84, -20013.93, -23392.75, -19628.83, -21439.28, -13778.22, 0.200, 0.904, 0.394, 23:11:49.125, 1574395909125
32, 15239.33, -1875.69, -20508.73, -20209.49, -23371.45, -19580.08, -21410.47, -13762.35, 0.000, 0.000, 0.000, 23:11:49.125, 1574395909125
33, 15212.66, -1937.99, -20350.86, -18311.22, -23313.90, -19289.02, -21425.29, -13405.68, 0.000, 0.000, 0.000, 23:11:49.133, 1574395909133
34, 15196.68, -1977.91, -20389.86, -17862.93, -23331.09, -19299.70, -21454.37, -13368.82, 0.000, 0.000, 0.000, 23:11:49.133, 1574395909133
35, 15202.76, -1938.92, -20555.71, -19700.58, -23404.44, -19588.84, -21456.58, -13728.37, 0.000, 0.000, 0.000, 23:11:49.141, 1574395909141
36, 15225.94, -1888.52, -20542.86, -20406.34, -23399.97, -19639.34, -21427.23, -13815.57, 0.000, 0.000, 0.000, 23:11:49.141, 1574395909141
37, 15231.66, -1912.88, -20348.85, -18635.95, -23302.61, -19303.32, -21406.44, -13449.89, 0.000, 0.000, 0.000, 23:11:49.148, 1574395909148
38, 15205.18, -1972.99, -20358.50, -17702.45, -23314.48, -19248.49, -21449.98, -13334.96, 0.000, 0.000, 0.000, 23:11:49.149, 1574395909149
39, 15214.23, -1937.43, -20540.98, -19350.35, -23388.80, -19542.93, -21456.02, -13663.55, 0.000, 0.000, 0.000, 23:11:49.155, 1574395909155
40, 15234.37, -1879.31, -20558.62, -20500.06, -23396.55, -19651.90, -21423.16, -13836.76, 0.000, 0.000, 0.000, 23:11:49.164, 1574395909164
41, 15218.97, -1911.99, -20388.54, -19026.23, -23332.07, -19384.15, -21420.06, -13544.20, 0.200, 0.906, 0.394, 23:11:49.164, 1574395909164
42, 15194.89, -1974.87, -20329.71, -17669.50, -23317.43, -19239.17, -21452.11, -13330.74, 0.000, 0.000, 0.000, 23:11:49.171, 1574395909171
43, 15202.05, -1954.57, -20495.86, -18964.94, -23379.43, -19497.96, -21465.09, -13608.37, 0.000, 0.000, 0.000, 23:11:49.172, 1574395909172
44, 15222.28, -1894.58, -20586.78, -20507.79, -23408.22, -19679.86, -21436.80, -13858.73, 0.000, 0.000, 0.000, 23:11:49.178, 1574395909178
45, 15226.14, -1901.17, -20439.44, -19421.45, -23350.29, -19455.11, -21423.63, -13621.35, 0.000, 0.000, 0.000, 23:11:49.178, 1574395909178
46, 15203.46, -1961.95, -20325.85, -17728.82, -23312.51, -19235.51, -21442.34, -13324.34, 0.000, 0.000, 0.000, 23:11:49.186, 1574395909186
47, 15204.19, -1958.01, -20432.38, -18584.27, -23357.91, -19430.33, -21454.79, -13518.54, 0.000, 0.000, 0.000, 23:11:49.186, 1574395909186
48, 15223.10, -1895.52, -20567.07, -20384.75, -23415.82, -19674.70, -21439.01, -13835.15, 0.000, 0.000, 0.000, 23:11:49.194, 1574395909194
49, 15226.59, -1890.20, -20456.47, -19763.28, -23362.67, -19509.65, -21418.89, -13673.68, 0.000, 0.000, 0.000, 23:11:49.194, 1574395909194
50, 15207.28, -1951.28, -20309.67, -17858.91, -23306.43, -19212.66, -21435.61, -13331.61, 0.000, 0.000, 0.000, 23:11:49.200, 1574395909200
51, 15197.20, -1969.97, -20405.24, -18243.09, -23351.00, -19359.40, -21462.64, -13452.44, 0.198, 0.912, 0.392, 23:11:49.200, 1574395909200
52, 15210.52, -1913.47, -20568.79, -20193.95, -23413.65, -19658.47, -21450.72, -13808.44, 0.000, 0.000, 0.000, 23:11:49.208, 1574395909208
53, 15222.61, -1888.39, -20489.96, -20088.23, -23379.19, -19573.85, -21427.59, -13743.84, 0.000, 0.000, 0.000, 23:11:49.208, 1574395909208
54, 15201.87, -1953.41, -20329.94, -18145.01, -23318.17, -19275.76, -21444.13, -13390.17, 0.000, 0.000, 0.000, 23:11:49.215, 1574395909215
55, 15183.85, -1989.75, -20391.27, -17986.20, -23345.08, -19324.29, -21470.04, -13407.85, 0.000, 0.000, 0.000, 23:11:49.223, 1574395909223
56, 15214.50, -1920.33, -20548.61, -19898.28, -23393.96, -19621.81, -21443.97, -13756.11, 0.000, 0.000, 0.000, 23:11:49.224, 1574395909224
57, 15225.94, -1884.39, -20515.15, -20313.26, -23376.26, -19616.02, -21418.02, -13788.79, 0.000, 0.000, 0.000, 23:11:49.230, 1574395909230
58, 15206.74, -1939.48, -20342.34, -18440.12, -23313.92, -19299.48, -21431.63, -13441.15, 0.000, 0.000, 0.000, 23:11:49.231, 1574395909231
59, 15198.76, -1976.92, -20350.35, -17783.32, -23320.47, -19281.46, -21460.22, -13371.60, 0.000, 0.000, 0.000, 23:11:49.238, 1574395909238
60, 15208.42, -1936.22, -20529.88, -19568.30, -23391.88, -19587.44, -21458.23, -13714.09, 0.000, 0.000, 0.000, 23:11:49.238, 1574395909238
61, 15225.76, -1889.57, -20547.29, -20467.56, -23397.07, -19663.14, -21432.73, -13839.17, 0.208, 0.912, 0.392, 23:11:49.246, 1574395909246
62, 15209.83, -1928.62, -20374.71, -18810.31, -23326.44, -19375.16, -21427.05, -13510.56, 0.000, 0.000, 0.000, 23:11:49.246, 1574395909246
63, 15193.53, -1977.41, -20331.77, -17674.78, -23312.60, -19251.42, -21449.29, -13336.46, 0.000, 0.000, 0.000, 23:11:49.252, 1574395909252
64, 15206.07, -1945.61, -20497.46, -19167.18, -23375.32, -19514.66, -21447.44, -13635.28, 0.000, 0.000, 0.000, 23:11:49.252, 1574395909252
65, 15229.99, -1889.04, -20564.54, -20511.32, -23399.62, -19672.08, -21423.32, -13849.63, 0.000, 0.000, 0.000, 23:11:49.260, 1574395909260
66, 15220.96, -1911.32, -20405.11, -19202.72, -23339.36, -19424.98, -21416.55, -13578.93, 0.000, 0.000, 0.000, 23:11:49.261, 1574395909261
67, 15200.62, -1970.17, -20312.46, -17672.32, -23301.34, -19225.43, -21433.40, -13319.49, 0.000, 0.000, 0.000, 23:11:49.270, 1574395909270
68, 15202.94, -1956.90, -20461.10, -18782.17, -23360.63, -19453.37, -21444.26, -13558.50, 0.000, 0.000, 0.000, 23:11:49.270, 1574395909270
69, 15223.79, -1901.60, -20575.32, -20471.09, -23405.36, -19677.34, -21425.62, -13850.19, 0.000, 0.000, 0.000, 23:11:49.276, 1574395909276
70, 15220.38, -1909.98, -20442.03, -19571.79, -23352.43, -19476.68, -21410.27, -13642.83, 0.000, 0.000, 0.000, 23:11:49.282, 1574395909282
71, 15191.16, -1970.71, -20312.24, -17777.26, -23302.90, -19236.58, -21427.81, -13329.44, 0.208, 0.916, 0.392, 23:11:49.282, 1574395909282
72, 15188.41, -1972.05, -20437.09, -18438.85, -23354.76, -19401.04, -21448.15, -13498.98, 0.000, 0.000, 0.000, 23:11:49.290, 1574395909290
73, 15205.76, -1915.57, -20586.07, -20320.80, -23413.65, -19667.28, -21436.30, -13838.46, 0.000, 0.000, 0.000, 23:11:49.290, 1574395909290
74, 15202.00, -1917.51, -20497.09, -19914.80, -23384.77, -19548.63, -21430.54, -13733.34, 0.000, 0.000, 0.000, 23:11:49.298, 1574395909298
75, 15183.67, -1975.04, -20336.73, -17992.24, -23322.08, -19272.75, -21446.03, -13389.30, 0.000, 0.000, 0.000, 23:11:49.298, 1574395909298
76, 15190.02, -1977.88, -20402.20, -18135.76, -23339.11, -19354.98, -21450.21, -13448.35, 0.000, 0.000, 0.000, 23:11:49.305, 1574395909305
77, 15206.63, -1921.69, -20569.24, -20088.05, -23402.77, -19647.12, -21435.97, -13800.21, 0.000, 0.000, 0.000, 23:11:49.306, 1574395909306
78, 15214.07, -1898.13, -20517.34, -20207.36, -23379.05, -19613.59, -21414.89, -13778.80, 0.000, 0.000, 0.000, 23:11:49.313, 1574395909313
79, 15198.47, -1955.38, -20341.63, -18264.35, -23309.43, -19286.25, -21419.47, -13409.30, 0.000, 0.000, 0.000, 23:11:49.314, 1574395909314
80, 15187.43, -1988.66, -20373.03, -17890.92, -23323.08, -19291.77, -21442.30, -13382.32, 0.000, 0.000, 0.000, 23:11:49.322, 1574395909322
81, 15193.93, -1943.98, -20560.23, -19782.43, -23398.52, -19628.07, -21446.07, -13753.74, 0.208, 0.920, 0.386, 23:11:49.322, 1574395909322
82, 15209.87, -1899.25, -20551.69, -20404.26, -23393.98, -19653.31, -21424.75, -13832.24, 0.000, 0.000, 0.000, 23:11:49.328, 1574395909328
83, 15207.43, -1938.52, -20373.41, -18620.75, -23320.40, -19333.68, -21416.75, -13474.28, 0.000, 0.000, 0.000, 23:11:49.328, 1574395909328
84, 15186.42, -1987.76, -20363.53, -17730.97, -23317.25, -19248.88, -21437.04, -13343.97, 0.000, 0.000, 0.000, 23:11:49.334, 1574395909334
85, 15193.53, -1950.59, -20525.74, -19404.15, -23387.43, -19547.63, -21440.15, -13676.76, 0.000, 0.000, 0.000, 23:11:49.342, 1574395909342
86, 15211.30, -1900.81, -20558.60, -20501.40, -23401.13, -19658.34, -21415.50, -13844.85, 0.000, 0.000, 0.000, 23:11:49.342, 1574395909342
87, 15209.65, -1923.35, -20396.03, -18979.78, -23329.59, -19376.93, -21402.71, -13525.33, 0.000, 0.000, 0.000, 23:11:49.350, 1574395909350
88, 15190.11, -1978.51, -20348.96, -17685.13, -23310.41, -19239.42, -21425.85, -13315.40, 0.000, 0.000, 0.000, 23:11:49.350, 1574395909350
89, 15196.82, -1953.48, -20487.85, -19017.18, -23368.73, -19484.15, -21430.52, -13594.91, 0.000, 0.000, 0.000, 23:11:49.358, 1574395909358
