%OpenBCI Raw EEG Data
%Number of channels = 8
%Sample Rate = 250.0 Hz
%First Column = SampleIndex
%Last Column = Timestamp 
%Other Columns = EEG data in microvolts followed by Accel Data (in G) interleaved with Aux Data
0, 66326.03, -18677.21, -37810.46, -39371.75, -38953.95, -34267.30, -14178.54, -34053.95, 0.046, 0.416, 0.282, 19:58:31.845, 1575939511845
1, 66653.10, -18827.28, -37099.67, -38062.40, -39025.27, -34322.13, -14249.59, -34019.22, 0.000, 0.000, 0.000, 19:58:31.852, 1575939511852
2, 66660.56, -18762.66, -37271.44, -37895.01, -39028.11, -34319.54, -14263.12, -34060.95, 0.000, 0.000, 0.000, 19:58:31.852, 1575939511852
3, 66326.48, -18601.41, -38010.73, -39217.39, -38949.50, -34263.75, -14187.70, -34099.30, 0.000, 0.000, 0.000, 19:58:31.859, 1575939511859
4, 66281.80, -18649.42, -37919.69, -39509.46, -38938.01, -34261.45, -14165.48, -34059.39, 0.000, 0.000, 0.000, 19:58:31.859, 1575939511859
5, 66616.94, -18801.71, -37174.86, -38260.46, -39003.99, -34306.44, -14221.45, -34003.98, 0.000, 0.000, 0.000, 19:58:31.866, 1575939511866
6, 66718.19, -18773.79, -37147.52, -37749.79, -39025.23, -34312.07, -14250.64, -34031.91, 0.000, 0.000, 0.000, 19:58:31.866, 1575939511866
7, 66385.75, -18614.98, -37901.36, -38973.53, -38962.84, -34272.31, -14199.62, -34096.67, 0.060, 0.628, 0.428, 19:58:31.873, 1575939511873
8, 66249.43, -18617.62, -38018.62, -39608.23, -38933.72, -34257.22, -14164.55, -34070.92, 0.000, 0.000, 0.000, 19:58:31.874, 1575939511874
9, 66555.55, -18771.73, -37295.76, -38518.94, -38988.04, -34296.94, -14213.32, -34008.40, 0.000, 0.000, 0.000, 19:58:31.881, 1575939511881
10, 66727.30, -18802.62, -37065.54, -37687.30, -39035.78, -34320.68, -14265.24, -34024.74, 0.000, 0.000, 0.000, 19:58:31.881, 1575939511881
11, 66442.32, -18647.57, -37776.48, -38706.58, -38980.91, -34276.11, -14220.27, -34089.40, 0.000, 0.000, 0.000, 19:58:31.890, 1575939511890
12, 66230.88, -18605.79, -38089.85, -39635.32, -38937.16, -34255.07, -14172.79, -34083.01, 0.000, 0.000, 0.000, 19:58:31.890, 1575939511890
13, 66480.75, -18749.51, -37442.50, -38776.77, -38980.12, -34286.93, -14206.77, -34017.70, 0.000, 0.000, 0.000, 19:58:31.896, 1575939511896
14, 66733.84, -18818.65, -37026.91, -37698.61, -39033.07, -34316.01, -14260.73, -34013.14, 0.000, 0.000, 0.000, 19:58:31.896, 1575939511896
15, 66510.12, -18679.78, -37640.43, -38439.77, -38998.56, -34292.27, -14237.26, -34090.93, 0.000, 0.000, 0.000, 19:58:31.903, 1575939511903
16, 66229.73, -18591.87, -38126.44, -39595.38, -38933.12, -34252.32, -14170.85, -34098.61, 0.000, 0.000, 0.000, 19:58:31.913, 1575939511913
17, 66417.78, -18708.81, -37590.78, -39027.46, -38954.62, -34271.68, -14181.73, -34030.02, 0.074, 0.726, 0.494, 19:58:31.913, 1575939511913
18, 66724.45, -18814.85, -37022.94, -37782.56, -39023.71, -34312.77, -14245.53, -34009.79, 0.000, 0.000, 0.000, 19:58:31.920, 1575939511920
19, 66583.79, -18709.62, -37488.28, -38184.58, -39007.84, -34299.36, -14237.68, -34078.68, 0.000, 0.000, 0.000, 19:58:31.920, 1575939511920
20, 66256.80, -18596.52, -38116.43, -39483.68, -38945.36, -34258.99, -14174.72, -34107.38, 0.000, 0.000, 0.000, 19:58:31.925, 1575939511925
21, 66353.90, -18685.39, -37744.03, -39251.65, -38954.48, -34265.91, -14173.40, -34044.86, 0.000, 0.000, 0.000, 19:58:31.926, 1575939511926
22, 66693.98, -18814.24, -37060.93, -37932.81, -39016.69, -34302.62, -14232.45, -34000.49, 0.000, 0.000, 0.000, 19:58:31.933, 1575939511933
23, 66643.58, -18729.98, -37345.58, -37964.04, -39012.73, -34296.34, -14239.54, -34053.93, 0.000, 0.000, 0.000, 19:58:31.933, 1575939511933
24, 66290.06, -18605.14, -38073.45, -39309.72, -38959.18, -34259.61, -14185.62, -34106.50, 0.000, 0.000, 0.000, 19:58:31.940, 1575939511940
25, 66292.05, -18666.63, -37891.84, -39435.56, -38957.23, -34261.07, -14171.94, -34060.14, 0.000, 0.000, 0.000, 19:58:31.941, 1575939511941
26, 66645.99, -18795.25, -37140.04, -38138.80, -39001.56, -34287.69, -14210.37, -33991.08, 0.000, 0.000, 0.000, 19:58:31.947, 1575939511947
27, 66693.98, -18756.18, -37214.82, -37793.96, -39019.42, -34293.54, -14233.39, -34029.66, 0.092, 0.776, 0.526, 19:58:31.948, 1575939511948
28, 66356.23, -18597.01, -37981.85, -39085.18, -38951.40, -34246.27, -14174.69, -34086.52, 0.000, 0.000, 0.000, 19:58:31.955, 1575939511955
29, 66271.63, -18613.59, -37989.23, -39552.77, -38919.50, -34225.71, -14139.96, -34044.39, 0.000, 0.000, 0.000, 19:58:31.956, 1575939511956
30, 66591.52, -18766.99, -37245.67, -38367.91, -38977.37, -34267.59, -14195.01, -33985.27, 0.000, 0.000, 0.000, 19:58:31.962, 1575939511962
31, 66727.53, -18782.84, -37115.50, -37689.49, -39019.44, -34290.68, -14239.51, -34012.16, 0.000, 0.000, 0.000, 19:58:31.969, 1575939511969
32, 66409.04, -18633.44, -37862.33, -38827.50, -38968.97, -34257.54, -14195.06, -34087.01, 0.000, 0.000, 0.000, 19:58:31.970, 1575939511970
33, 66232.64, -18610.24, -38074.63, -39614.58, -38929.34, -34232.72, -14148.79, -34067.34, 0.000, 0.000, 0.000, 19:58:31.977, 1575939511977
34, 66516.02, -18759.13, -37382.78, -38631.88, -38978.36, -34270.79, -14193.47, -34003.80, 0.000, 0.000, 0.000, 19:58:31.978, 1575939511978
35, 66736.70, -18808.25, -37053.09, -37671.07, -39029.63, -34299.29, -14247.85, -34011.57, 0.000, 0.000, 0.000, 19:58:31.985, 1575939511985
36, 66478.20, -18653.38, -37718.05, -38561.43, -38985.60, -34265.00, -14213.29, -34083.88, 0.000, 0.000, 0.000, 19:58:31.986, 1575939511986
37, 66234.56, -18592.11, -38119.96, -39606.08, -38938.13, -34240.84, -14163.38, -34089.58, 0.096, 0.796, 0.546, 19:58:31.993, 1575939511993
38, 66458.75, -18720.64, -37526.45, -38890.11, -38968.14, -34266.56, -14185.53, -34018.93, 0.000, 0.000, 0.000, 19:58:31.994, 1575939511994
39, 66731.20, -18808.79, -37028.66, -37724.78, -39034.10, -34309.19, -14249.57, -34009.96, 0.000, 0.000, 0.000, 19:58:32.002, 1575939512002
40, 66542.75, -18686.73, -37578.33, -38306.51, -39016.91, -34296.52, -14242.84, -34089.88, 0.000, 0.000, 0.000, 19:58:32.003, 1575939512003
41, 66252.47, -18579.15, -38132.25, -39535.88, -38944.23, -34245.29, -14170.60, -34097.90, 0.000, 0.000, 0.000, 19:58:32.007, 1575939512007
42, 66398.49, -18688.38, -37669.46, -39128.27, -38960.81, -34263.93, -14177.22, -34033.91, 0.000, 0.000, 0.000, 19:58:32.008, 1575939512008
43, 66720.89, -18803.70, -37038.27, -37842.48, -39027.80, -34305.41, -14241.61, -34005.07, 0.000, 0.000, 0.000, 19:58:32.015, 1575939512015
44, 66618.16, -18713.33, -37414.74, -38063.45, -39022.03, -34299.55, -14246.44, -34072.04, 0.000, 0.000, 0.000, 19:58:32.016, 1575939512016
45, 66282.40, -18580.02, -38100.94, -39401.34, -38957.48, -34256.50, -14186.45, -34108.74, 0.000, 0.000, 0.000, 19:58:32.026, 1575939512026
46, 66330.74, -18667.01, -37819.53, -39344.30, -38964.50, -34272.80, -14186.03, -34062.92, 0.000, 0.000, 0.000, 19:58:32.029, 1575939512029
47, 66667.80, -18810.24, -37103.36, -38034.11, -39024.02, -34316.39, -14244.12, -34016.80, 0.086, 0.806, 0.558, 19:58:32.030, 1575939512030
48, 66666.73, -18745.76, -37284.21, -37882.61, -39028.38, -34312.79, -14255.81, -34061.87, 0.000, 0.000, 0.000, 19:58:32.037, 1575939512037
49, 66328.69, -18588.83, -38029.23, -39212.31, -38955.09, -34261.91, -14188.31, -34107.91, 0.000, 0.000, 0.000, 19:58:32.038, 1575939512038
50, 66284.52, -18643.99, -37940.34, -39499.91, -38947.46, -34264.30, -14174.29, -34070.25, 0.000, 0.000, 0.000, 19:58:32.044, 1575939512044
51, 66623.46, -18788.96, -37190.53, -38250.81, -39001.60, -34302.62, -14224.11, -34009.65, 0.000, 0.000, 0.000, 19:58:32.045, 1575939512045
52, 66709.54, -18776.45, -37160.49, -37741.79, -39031.89, -34319.23, -14256.72, -34044.03, 0.000, 0.000, 0.000, 19:58:32.053, 1575939512053
53, 66362.87, -18637.13, -37925.43, -38967.40, -38989.98, -34290.55, -14217.41, -34123.82, 0.000, 0.000, 0.000, 19:58:32.054, 1575939512054
54, 66233.29, -18626.51, -38044.50, -39608.00, -38952.14, -34266.16, -14171.36, -34092.64, 0.000, 0.000, 0.000, 19:58:32.061, 1575939512061
55, 66543.94, -18771.80, -37315.03, -38510.69, -38999.93, -34299.64, -14210.43, -34022.17, 0.000, 0.000, 0.000, 19:58:32.061, 1575939512061
56, 66730.82, -18786.75, -37081.63, -37682.00, -39034.01, -34311.91, -14251.79, -34028.94, 0.000, 0.000, 0.000, 19:58:32.068, 1575939512068
57, 66443.42, -18632.84, -37788.35, -38702.04, -38988.48, -34276.55, -14213.54, -34099.26, 0.000, 0.000, 0.000, 19:58:32.069, 1575939512069
58, 66230.90, -18592.90, -38098.12, -39622.45, -38946.26, -34250.29, -14165.64, -34089.34, 0.096, 0.816, 0.558, 19:58:32.075, 1575939512075
59, 66485.13, -18735.03, -37450.39, -38763.78, -38988.84, -34283.11, -14197.74, -34024.65, 0.000, 0.000, 0.000, 19:58:32.075, 1575939512075
60, 66727.87, -18812.43, -37044.84, -37701.42, -39053.10, -34325.33, -14263.23, -34031.47, 0.000, 0.000, 0.000, 19:58:32.081, 1575939512081
61, 66510.83, -18665.54, -37653.75, -38441.29, -39007.28, -34291.11, -14230.26, -34097.20, 0.000, 0.000, 0.000, 19:58:32.082, 1575939512082
62, 66242.14, -18574.57, -38128.79, -39580.49, -38939.98, -34243.43, -14160.23, -34096.00, 0.000, 0.000, 0.000, 19:58:32.090, 1575939512090
63, 66426.16, -18698.60, -37596.17, -39008.60, -38966.29, -34265.80, -14177.20, -34028.90, 0.000, 0.000, 0.000, 19:58:32.101, 1575939512101
64, 66731.22, -18809.17, -37020.66, -37763.36, -39027.35, -34308.61, -14237.35, -34008.34, 0.000, 0.000, 0.000, 19:58:32.101, 1575939512101
65, 66578.31, -18698.42, -37486.15, -38169.92, -39014.70, -34298.21, -14231.96, -34079.86, 0.000, 0.000, 0.000, 19:58:32.104, 1575939512104
66, 66256.72, -18582.28, -38117.23, -39473.67, -38952.29, -34255.79, -14171.09, -34106.19, 0.000, 0.000, 0.000, 19:58:32.105, 1575939512105
67, 66361.34, -18672.91, -37738.93, -39235.49, -38958.51, -34263.48, -14171.12, -34043.43, 0.000, 0.000, 0.000, 19:58:32.113, 1575939512113
68, 66697.27, -18799.87, -37055.86, -37922.24, -39015.50, -34298.10, -14225.95, -33999.26, 0.096, 0.820, 0.566, 19:58:32.113, 1575939512113
69, 66638.66, -18731.03, -37338.01, -37954.87, -39020.36, -34300.05, -14241.21, -34058.74, 0.000, 0.000, 0.000, 19:58:32.125, 1575939512125
70, 66289.37, -18593.88, -38066.38, -39305.30, -38959.02, -34261.63, -14184.77, -34111.91, 0.000, 0.000, 0.000, 19:58:32.125, 1575939512125
71, 66303.05, -18649.67, -37872.48, -39421.46, -38947.45, -34255.59, -14164.34, -34058.27, 0.000, 0.000, 0.000, 19:58:32.129, 1575939512129
72, 66647.85, -18799.20, -37130.54, -38123.34, -39011.08, -34301.81, -14225.81, -34009.05, 0.000, 0.000, 0.000, 19:58:32.129, 1575939512129
73, 66694.20, -18749.22, -37209.55, -37792.73, -39025.79, -34304.81, -14249.88, -34047.88, 0.000, 0.000, 0.000, 19:58:32.136, 1575939512136
74, 66348.34, -18597.70, -37970.52, -39080.93, -38964.21, -34260.77, -14188.64, -34105.34, 0.000, 0.000, 0.000, 19:58:32.137, 1575939512137
75, 66261.05, -18621.71, -37986.05, -39546.65, -38941.52, -34250.18, -14155.90, -34070.41, 0.000, 0.000, 0.000, 19:58:32.144, 1575939512144
76, 66585.64, -18779.44, -37242.57, -38368.22, -39005.34, -34302.50, -14214.17, -34017.27, 0.000, 0.000, 0.000, 19:58:32.144, 1575939512144
77, 66721.63, -18781.07, -37114.27, -37701.11, -39039.58, -34318.35, -14256.86, -34037.66, 0.000, 0.000, 0.000, 19:58:32.154, 1575939512154
78, 66414.88, -18618.82, -37855.23, -38839.64, -38980.30, -34277.74, -14207.10, -34105.23, 0.096, 0.820, 0.562, 19:58:32.158, 1575939512158
79, 66233.55, -18612.34, -38072.08, -39623.99, -38950.62, -34264.71, -14171.45, -34096.96, 0.000, 0.000, 0.000, 19:58:32.159, 1575939512159
80, 66506.18, -18768.98, -37382.46, -38636.60, -39007.41, -34308.96, -14218.19, -34039.16, 0.000, 0.000, 0.000, 19:58:32.165, 1575939512165
81, 66728.20, -18807.25, -37054.18, -37675.74, -39044.61, -34327.29, -14263.63, -34035.43, 0.000, 0.000, 0.000, 19:58:32.165, 1575939512165
82, 66475.65, -18650.09, -37718.72, -38572.40, -38992.37, -34288.83, -14224.00, -34103.26, 0.000, 0.000, 0.000, 19:58:32.172, 1575939512172
83, 66232.09, -18592.94, -38116.65, -39614.46, -38940.96, -34259.79, -14171.74, -34105.18, 0.000, 0.000, 0.000, 19:58:32.173, 1575939512173
84, 66449.30, -18732.97, -37515.64, -38886.87, -38978.96, -34293.09, -14198.61, -34039.52, 0.000, 0.000, 0.000, 19:58:32.180, 1575939512180
85, 66729.59, -18815.97, -37021.68, -37723.35, -39035.33, -34323.16, -14252.86, -34021.86, 0.000, 0.000, 0.000, 19:58:32.180, 1575939512180
86, 66545.59, -18691.33, -37561.82, -38301.97, -39006.00, -34296.71, -14229.37, -34085.79, 0.000, 0.000, 0.000, 19:58:32.187, 1575939512187
87, 66243.59, -18596.70, -38124.86, -39537.38, -38950.08, -34259.64, -14173.60, -34108.85, 0.000, 0.000, 0.000, 19:58:32.188, 1575939512188
88, 66394.49, -18698.55, -37664.79, -39135.54, -38964.07, -34273.36, -14182.70, -34044.57, 0.092, 0.818, 0.568, 19:58:32.195, 1575939512195
89, 66712.69, -18812.50, -37036.71, -37851.18, -39028.98, -34315.38, -14242.46, -34013.65, 0.000, 0.000, 0.000, 19:58:32.196, 1575939512196
90, 66613.72, -18716.05, -37418.23, -38070.47, -39025.83, -34308.34, -14244.90, -34080.08, 0.000, 0.000, 0.000, 19:58:32.202, 1575939512202
91, 66272.05, -18591.78, -38105.50, -39406.48, -38965.48, -34271.19, -14188.31, -34124.88, 0.000, 0.000, 0.000, 19:58:32.203, 1575939512203
92, 66327.21, -18672.51, -37811.21, -39338.93, -38959.78, -34274.88, -14176.55, -34064.75, 0.000, 0.000, 0.000, 19:58:32.209, 1575939512209
93, 66666.27, -18813.17, -37092.27, -38021.61, -39021.81, -34316.52, -14235.56, -34019.49, 0.000, 0.000, 0.000, 19:58:32.217, 1575939512217
94, 66667.09, -18740.98, -37277.72, -37876.75, -39029.52, -34307.22, -14247.81, -34063.88, 0.000, 0.000, 0.000, 19:58:32.218, 1575939512218
95, 66316.51, -18597.86, -38027.36, -39210.17, -38967.49, -34271.39, -14190.09, -34118.95, 0.000, 0.000, 0.000, 19:58:32.225, 1575939512225
96, 66272.49, -18651.01, -37946.11, -39506.80, -38965.17, -34280.55, -14182.85, -34088.73, 0.000, 0.000, 0.000, 19:58:32.226, 1575939512226
97, 66615.51, -18791.98, -37189.55, -38250.23, -39013.67, -34309.46, -14227.15, -34018.71, 0.000, 0.000, 0.000, 19:58:32.232, 1575939512232
98, 66714.16, -18766.57, -37161.27, -37741.68, -39027.87, -34307.36, -14246.76, -34039.47, 0.090, 0.816, 0.568, 19:58:32.233, 1575939512233
99, 66386.34, -18612.01, -37921.79, -38967.65, -38971.07, -34266.92, -14192.80, -34103.75, 0.000, 0.000, 0.000, 19:58:32.239, 1575939512239
100, 66246.10, -18626.60, -38036.16, -39587.60, -38946.35, -34259.95, -14163.72, -34083.10, 0.000, 0.000, 0.000, 19:58:32.240, 1575939512240
101, 66548.61, -18778.42, -37314.67, -38501.10, -38993.94, -34296.09, -14206.81, -34019.18, 0.000, 0.000, 0.000, 19:58:32.247, 1575939512247
102, 66725.34, -18800.70, -37089.48, -37686.20, -39035.38, -34315.71, -14243.13, -34026.37, 0.000, 0.000, 0.000, 19:58:32.248, 1575939512248
103, 66442.01, -18643.43, -37804.15, -38719.88, -38982.60, -34281.63, -14195.68, -34094.55, 0.000, 0.000, 0.000, 19:58:32.254, 1575939512254
104, 66229.36, -18609.68, -38107.36, -39633.75, -38937.59, -34255.93, -14148.34, -34086.90, 0.000, 0.000, 0.000, 19:58:32.255, 1575939512255
105, 66484.39, -18749.13, -37450.46, -38765.57, -38975.65, -34285.09, -14180.73, -34018.15, 0.000, 0.000, 0.000, 19:58:32.263, 1575939512263
106, 66737.21, -18810.38, -37033.98, -37694.74, -39026.55, -34314.20, -14231.29, -34011.80, 0.000, 0.000, 0.000, 19:58:32.263, 1575939512263
107, 66505.73, -18679.62, -37643.76, -38438.45, -38994.34, -34294.66, -14208.13, -34090.19, 0.000, 0.000, 0.000, 19:58:32.269, 1575939512269
108, 66223.45, -18608.65, -38131.92, -39588.98, -38944.27, -34266.59, -14159.76, -34108.07, 0.094, 0.820, 0.570, 19:58:32.277, 1575939512277
109, 66406.67, -18732.04, -37595.88, -39013.38, -38970.89, -34288.69, -14178.58, -34043.29, 0.000, 0.000, 0.000, 19:58:32.278, 1575939512278
110, 66709.13, -18832.19, -37024.30, -37768.14, -39033.72, -34327.70, -14242.96, -34020.14, 0.000, 0.000, 0.000, 19:58:32.283, 1575939512283
111, 66573.41, -18708.12, -37490.96, -38183.15, -39009.49, -34305.46, -14231.06, -34082.32, 0.000, 0.000, 0.000, 19:58:32.284, 1575939512284
112, 66256.78, -18598.46, -38115.00, -39479.04, -38953.39, -34267.04, -14173.11, -34113.05, 0.000, 0.000, 0.000, 19:58:32.291, 1575939512291
113, 66356.45, -18698.37, -37736.80, -39235.11, -38969.30, -34280.82, -14177.96, -34056.70, 0.000, 0.000, 0.000, 19:58:32.292, 1575939512292
114, 66690.18, -18823.21, -37056.29, -37917.18, -39031.04, -34317.30, -14233.39, -34013.30, 0.000, 0.000, 0.000, 19:58:32.299, 1575939512299
115, 66634.95, -18739.23, -37342.81, -37962.49, -39026.75, -34309.73, -14235.54, -34066.76, 0.000, 0.000, 0.000, 19:58:32.300, 1575939512300
116, 66283.11, -18613.24, -38068.08, -39307.02, -38964.92, -34269.45, -14176.77, -34115.36, 0.000, 0.000, 0.000, 19:58:32.307, 1575939512307
117, 66294.13, -18673.72, -37874.88, -39417.99, -38950.75, -34264.48, -14156.14, -34058.89, 0.000, 0.000, 0.000, 19:58:32.307, 1575939512307
118, 66631.95, -18821.44, -37132.80, -38120.72, -39011.44, -34309.70, -14213.47, -34006.66, 0.000, 0.000, 0.000, 19:58:32.315, 1575939512315
119, 66670.06, -18786.89, -37216.35, -37798.12, -39032.63, -34314.96, -14240.34, -34047.99, 0.092, 0.818, 0.574, 19:58:32.315, 1575939512315
120, 66327.13, -18630.45, -37984.57, -39096.38, -38967.96, -34271.66, -14185.89, -34109.03, 0.000, 0.000, 0.000, 19:58:32.324, 1575939512324
121, 66254.46, -18643.86, -37989.27, -39556.75, -38936.00, -34253.98, -14149.62, -34067.45, 0.000, 0.000, 0.000, 19:58:32.324, 1575939512324
122, 66579.95, -18803.52, -37239.70, -38364.13, -38997.04, -34299.62, -14201.49, -34009.32, 0.000, 0.000, 0.000, 19:58:32.331, 1575939512331
123, 66704.15, -18814.33, -37130.83, -37710.88, -39039.11, -34328.28, -14249.82, -34043.18, 0.000, 0.000, 0.000, 19:58:32.332, 1575939512332
124, 66387.77, -18653.22, -37877.53, -38857.99, -38980.08, -34288.60, -14199.88, -34108.67, 0.000, 0.000, 0.000, 19:58:32.337, 1575939512337
125, 66225.67, -18627.65, -38073.11, -39623.14, -38935.82, -34259.46, -14149.75, -34081.96, 0.000, 0.000, 0.000, 19:58:32.344, 1575939512344
126, 66516.53, -18771.04, -37368.02, -38623.97, -38976.41, -34288.71, -14183.43, -34008.49, 0.000, 0.000, 0.000, 19:58:32.345, 1575939512345
127, 66730.30, -18815.63, -37049.67, -37673.21, -39028.31, -34317.37, -14236.05, -34015.46, 0.000, 0.000, 0.000, 19:58:32.356, 1575939512356
128, 66475.94, -18668.29, -37720.73, -38571.91, -38985.53, -34286.48, -14202.12, -34088.96, 0.000, 0.000, 0.000, 19:58:32.356, 1575939512356
129, 66236.04, -18606.55, -38117.03, -39608.88, -38932.29, -34250.94, -14148.63, -34089.18, 0.094, 0.812, 0.574, 19:58:32.360, 1575939512360
130, 66463.05, -18734.54, -37510.85, -38870.22, -38967.09, -34276.02, -14174.45, -34024.07, 0.000, 0.000, 0.000, 19:58:32.361, 1575939512361
131, 66744.16, -18808.19, -37019.43, -37712.76, -39021.74, -34308.07, -14230.75, -34009.95, 0.000, 0.000, 0.000, 19:58:32.367, 1575939512367
132, 66546.13, -18694.71, -37570.29, -38304.43, -39004.51, -34296.43, -14221.92, -34087.21, 0.000, 0.000, 0.000, 19:58:32.368, 1575939512368
133, 66238.84, -18607.11, -38137.24, -39543.18, -38950.02, -34263.64, -14169.15, -34110.26, 0.000, 0.000, 0.000, 19:58:32.374, 1575939512374
134, 66381.80, -18715.94, -37679.00, -39135.33, -38970.98, -34281.34, -14182.67, -34047.63, 0.000, 0.000, 0.000, 19:58:32.375, 1575939512375
135, 66700.60, -18830.03, -37045.76, -37846.17, -39030.04, -34316.74, -14242.98, -34011.89, 0.000, 0.000, 0.000, 19:58:32.385, 1575939512385
136, 66590.12, -18735.72, -37429.49, -38080.49, -39024.49, -34309.41, -14242.98, -34076.95, 0.000, 0.000, 0.000, 19:58:32.386, 1575939512386
137, 66254.03, -18615.25, -38105.95, -39411.45, -38963.16, -34268.98, -14180.86, -34112.32, 0.000, 0.000, 0.000, 19:58:32.391, 1575939512391
138, 66317.58, -18686.86, -37810.41, -39336.10, -38954.53, -34264.39, -14163.99, -34047.88, 0.000, 0.000, 0.000, 19:58:32.391, 1575939512391
139, 66663.05, -18810.42, -37084.09, -38013.21, -39005.65, -34293.50, -14212.40, -33990.81, 0.098, 0.812, 0.572, 19:58:32.396, 1575939512396
140, 66653.75, -18754.16, -37269.32, -37869.73, -39015.57, -34294.86, -14228.99, -34039.92, 0.000, 0.000, 0.000, 19:58:32.404, 1575939512404
141, 66304.66, -18615.58, -38019.42, -39201.74, -38958.24, -34255.12, -14173.49, -34096.22, 0.000, 0.000, 0.000, 19:58:32.405, 1575939512405
142, 66272.56, -18655.37, -37919.67, -39479.26, -38943.13, -34248.73, -14151.25, -34052.88, 0.000, 0.000, 0.000, 19:58:32.413, 1575939512413
143, 66606.77, -18799.67, -37171.08, -38223.58, -39004.69, -34286.82, -14207.98, -33995.86, 0.000, 0.000, 0.000, 19:58:32.414, 1575939512414
144, 66691.70, -18787.71, -37159.35, -37730.57, -39042.95, -34306.84, -14248.99, -34036.72, 0.000, 0.000, 0.000, 19:58:32.419, 1575939512419
145, 66368.52, -18621.51, -37933.57, -38973.21, -38997.89, -34282.30, -14212.22, -34119.89, 0.000, 0.000, 0.000, 19:58:32.420, 1575939512420
146, 66264.83, -18604.36, -38029.30, -39587.93, -38954.89, -34257.27, -14166.83, -34086.34, 0.000, 0.000, 0.000, 19:58:32.427, 1575939512427
147, 66561.68, -18774.55, -37290.42, -38482.24, -38999.59, -34292.09, -14206.72, -34015.06, 0.000, 0.000, 0.000, 19:58:32.428, 1575939512428
148, 66725.70, -18811.32, -37067.02, -37665.88, -39041.50, -34316.39, -14253.30, -34030.78, 0.000, 0.000, 0.000, 19:58:32.435, 1575939512435
149, 66448.74, -18647.23, -37781.13, -38703.92, -38986.94, -34279.68, -14209.83, -34099.73, 0.100, 0.820, 0.570, 19:58:32.436, 1575939512436
150, 66244.34, -18610.55, -38082.21, -39616.50, -38942.57, -34254.67, -14162.13, -34090.03, 0.000, 0.000, 0.000, 19:58:32.441, 1575939512441
151, 66506.14, -18739.08, -37420.95, -38746.46, -38976.55, -34279.46, -14190.09, -34016.83, 0.000, 0.000, 0.000, 19:58:32.442, 1575939512442
152, 66762.47, -18802.20, -37005.79, -37678.91, -39027.39, -34307.22, -14243.02, -34010.35, 0.000, 0.000, 0.000, 19:58:32.449, 1575939512449
153, 66530.75, -18678.55, -37621.47, -38427.30, -38999.12, -34288.25, -14222.46, -34086.48, 0.000, 0.000, 0.000, 19:58:32.450, 1575939512450
154, 66245.23, -18610.44, -38113.90, -39573.14, -38956.96, -34266.52, -14176.30, -34106.95, 0.000, 0.000, 0.000, 19:58:32.457, 1575939512457
155, 66450.82, -18711.45, -37576.75, -39000.55, -38971.96, -34277.23, -14185.09, -34029.95, 0.000, 0.000, 0.000, 19:58:32.463, 1575939512463
156, 66753.80, -18810.00, -37005.68, -37760.84, -39028.76, -34312.99, -14239.96, -34002.14, 0.000, 0.000, 0.000, 19:58:32.464, 1575939512464
157, 66602.72, -18706.78, -37482.36, -38179.80, -39016.67, -34302.08, -14235.89, -34077.29, 0.000, 0.000, 0.000, 19:58:32.471, 1575939512471
158, 66282.58, -18592.09, -38107.44, -39475.17, -38950.39, -34256.77, -14171.05, -34103.82, 0.000, 0.000, 0.000, 19:58:32.472, 1575939512472
159, 66382.02, -18690.93, -37723.60, -39223.76, -38961.26, -34273.98, -14170.56, -34044.43, 0.100, 0.814, 0.566, 19:58:32.479, 1575939512479
160, 66721.66, -18804.68, -37040.86, -37913.23, -39011.32, -34306.28, -14220.60, -33998.84, 0.000, 0.000, 0.000, 19:58:32.480, 1575939512480
161, 66661.53, -18734.36, -37325.78, -37958.47, -39013.20, -34307.38, -14230.80, -34056.59, 0.000, 0.000, 0.000, 19:58:32.487, 1575939512487
162, 66315.90, -18595.78, -38048.34, -39306.14, -38946.21, -34261.00, -14164.90, -34101.47, 0.000, 0.000, 0.000, 19:58:32.488, 1575939512488
163, 66333.90, -18650.18, -37848.18, -39409.28, -38937.77, -34255.88, -14149.53, -34048.68, 0.000, 0.000, 0.000, 19:58:32.494, 1575939512494
164, 66677.48, -18794.44, -37110.22, -38110.08, -39000.06, -34301.52, -14211.84, -34001.63, 0.000, 0.000, 0.000, 19:58:32.495, 1575939512495
165, 66716.18, -18758.30, -37197.73, -37792.20, -39020.54, -34310.39, -14236.14, -34046.55, 0.000, 0.000, 0.000, 19:58:32.502, 1575939512502
166, 66371.76, -18607.80, -37958.49, -39089.69, -38958.82, -34270.39, -14179.07, -34109.83, 0.000, 0.000, 0.000, 19:58:32.507, 1575939512507
167, 66290.17, -18631.01, -37960.32, -39542.63, -38938.95, -34263.12, -14155.90, -34076.17, 0.000, 0.000, 0.000, 19:58:32.510, 1575939512510
168, 66620.40, -18783.64, -37212.73, -38353.04, -38997.47, -34303.47, -14208.71, -34014.23, 0.000, 0.000, 0.000, 19:58:32.510, 1575939512510
169, 66748.99, -18787.18, -37092.09, -37695.41, -39034.46, -34319.25, -14251.52, -34036.57, 0.096, 0.826, 0.570, 19:58:32.516, 1575939512516
170, 66423.37, -18636.82, -37843.22, -38846.17, -38985.55, -34288.45, -14210.66, -34111.44, 0.000, 0.000, 0.000, 19:58:32.524, 1575939512524
171, 66271.06, -18601.66, -38041.48, -39607.56, -38933.63, -34253.89, -14155.78, -34082.43, 0.000, 0.000, 0.000, 19:58:32.524, 1575939512524
172, 66560.85, -18750.97, -37336.20, -38601.04, -38976.23, -34285.94, -14191.05, -34012.65, 0.000, 0.000, 0.000, 19:58:32.531, 1575939512531
173, 66771.27, -18801.21, -37022.07, -37656.52, -39029.68, -34313.93, -14249.33, -34021.63, 0.000, 0.000, 0.000, 19:58:32.532, 1575939512532
174, 66508.26, -18647.14, -37701.00, -38565.86, -38988.97, -34282.52, -14220.72, -34095.57, 0.000, 0.000, 0.000, 19:58:32.539, 1575939512539
175, 66264.54, -18585.86, -38096.18, -39605.99, -38934.55, -34248.93, -14167.79, -34092.82, 0.000, 0.000, 0.000, 19:58:32.540, 1575939512540
176, 66495.97, -18720.79, -37485.64, -38863.25, -38968.63, -34276.22, -14192.96, -34028.68, 0.000, 0.000, 0.000, 19:58:32.547, 1575939512547
177, 66771.56, -18800.86, -36994.35, -37706.90, -39023.73, -34307.94, -14249.88, -34013.21, 0.000, 0.000, 0.000, 19:58:32.547, 1575939512547
178, 66578.98, -18679.26, -37545.36, -38303.45, -38995.99, -34284.31, -14231.87, -34083.04, 0.000, 0.000, 0.000, 19:58:32.554, 1575939512554
179, 66287.36, -18580.54, -38101.90, -39527.25, -38933.90, -34241.75, -14170.45, -34101.63, 0.000, 0.000, 0.000, 19:58:32.555, 1575939512555
180, 66430.81, -18694.98, -37635.91, -39103.32, -38952.74, -34257.82, -14180.59, -34037.73, 0.086, 0.826, 0.574, 19:58:32.562, 1575939512562
181, 66757.53, -18805.17, -37011.49, -37823.71, -39012.91, -34293.43, -14236.88, -34003.39, 0.000, 0.000, 0.000, 19:58:32.563, 1575939512563
182, 66652.74, -18710.94, -37398.73, -38061.78, -39007.17, -34290.77, -14238.98, -34067.68, 0.000, 0.000, 0.000, 19:58:32.568, 1575939512568
183, 66307.34, -18579.57, -38081.27, -39398.93, -38941.63, -34244.70, -14175.74, -34103.69, 0.000, 0.000, 0.000, 19:58:32.569, 1575939512569
184, 66368.38, -18655.86, -37785.11, -39324.56, -38938.35, -34244.91, -14163.96, -34044.01, 0.000, 0.000, 0.000, 19:58:32.576, 1575939512576
185, 66707.05, -18803.83, -37072.38, -37999.68, -39013.05, -34299.29, -14235.20, -34008.38, 0.000, 0.000, 0.000, 19:58:32.576, 1575939512576
186, 66695.62, -18743.01, -37274.98, -37875.66, -39022.52, -34298.77, -14251.85, -34057.71, 0.000, 0.000, 0.000, 19:58:32.583, 1575939512583
187, 66346.70, -18597.34, -38024.05, -39209.92, -38960.03, -34255.93, -14193.65, -34112.34, 0.000, 0.000, 0.000, 19:58:32.592, 1575939512592
188, 66319.05, -18635.65, -37916.11, -39481.14, -38944.27, -34251.14, -14170.09, -34065.11, 0.000, 0.000, 0.000, 19:58:32.593, 1575939512593
189, 66659.56, -18786.80, -37160.29, -38222.98, -39004.15, -34293.07, -14223.78, -34005.52, 0.000, 0.000, 0.000, 19:58:32.600, 1575939512600
190, 66747.70, -18767.17, -37150.12, -37738.19, -39028.85, -34303.47, -14256.41, -34039.71, 0.086, 0.820, 0.572, 19:58:32.601, 1575939512601
191, 66405.82, -18616.28, -37912.58, -38970.27, -38975.25, -34270.30, -14211.82, -34111.49, 0.000, 0.000, 0.000, 19:58:32.606, 1575939512606
192, 66277.91, -18617.93, -38020.59, -39587.93, -38940.11, -34249.60, -14171.65, -34080.62, 0.000, 0.000, 0.000, 19:58:32.607, 1575939512607
193, 66591.41, -18763.66, -37287.04, -38477.75, -38985.66, -34282.48, -14207.13, -34007.29, 0.000, 0.000, 0.000, 19:58:32.614, 1575939512614
194, 66769.77, -18779.51, -37067.06, -37665.44, -39022.16, -34297.92, -14243.49, -34015.93, 0.000, 0.000, 0.000, 19:58:32.615, 1575939512615
195, 66478.60, -18628.52, -37786.32, -38706.34, -38970.45, -34262.14, -14204.94, -34088.15, 0.000, 0.000, 0.000, 19:58:32.621, 1575939512621
196, 66273.70, -18591.51, -38081.20, -39613.26, -38922.12, -34228.25, -14153.68, -34071.93, 0.000, 0.000, 0.000, 19:58:32.622, 1575939512622
197, 66530.37, -18733.76, -37422.94, -38729.47, -38964.50, -34256.93, -14186.99, -34004.36, 0.000, 0.000, 0.000, 19:58:32.630, 1575939512630
198, 66776.82, -18794.69, -37016.19, -37664.50, -39020.87, -34289.41, -14244.90, -34001.16, 0.000, 0.000, 0.000, 19:58:32.630, 1575939512630
199, 66544.80, -18654.61, -37635.48, -38427.27, -38988.01, -34267.26, -14220.83, -34079.01, 0.000, 0.000, 0.000, 19:58:32.638, 1575939512638
200, 66269.97, -18570.19, -38108.76, -39566.03, -38925.61, -34226.15, -14155.99, -34083.50, 0.096, 0.818, 0.566, 19:58:32.638, 1575939512638
201, 66464.34, -18692.27, -37562.24, -38974.82, -38949.32, -34245.35, -14169.35, -34015.98, 0.000, 0.000, 0.000, 19:58:32.644, 1575939512644
202, 66765.40, -18791.85, -36999.38, -37739.94, -39014.30, -34288.83, -14230.93, -33997.92, 0.000, 0.000, 0.000, 19:58:32.650, 1575939512650
203, 66612.17, -18685.46, -37476.43, -38162.61, -39002.92, -34280.13, -14230.33, -34074.43, 0.000, 0.000, 0.000, 19:58:32.651, 1575939512651
204, 66293.26, -18569.98, -38102.50, -39458.07, -38940.34, -34239.70, -14172.77, -34105.61, 0.000, 0.000, 0.000, 19:58:32.660, 1575939512660
205, 66402.88, -18663.46, -37712.82, -39201.79, -38950.30, -34251.16, -14176.88, -34043.47, 0.000, 0.000, 0.000, 19:58:32.660, 1575939512660
206, 66734.93, -18794.20, -37033.64, -37885.27, -39017.23, -34294.28, -14238.53, -34005.85, 0.000, 0.000, 0.000, 19:58:32.666, 1575939512666
207, 66680.17, -18713.37, -37324.08, -37938.04, -39018.14, -34288.04, -14244.72, -34061.55, 0.000, 0.000, 0.000, 19:58:32.667, 1575939512667
208, 66336.42, -18574.21, -38047.59, -39285.85, -38952.16, -34245.82, -14185.18, -34107.98, 0.000, 0.000, 0.000, 19:58:32.675, 1575939512675
209, 66354.26, -18624.95, -37845.84, -39390.50, -38938.39, -34240.34, -14166.45, -34051.74, 0.000, 0.000, 0.000, 19:58:32.676, 1575939512676
210, 66699.08, -18768.42, -37103.09, -38091.89, -38998.63, -34276.93, -14218.70, -33991.86, 0.096, 0.816, 0.566, 19:58:32.687, 1575939512687
211, 66727.29, -18738.70, -37198.69, -37773.24, -39022.32, -34287.29, -14249.28, -34036.48, 0.000, 0.000, 0.000, 19:58:32.688, 1575939512688
213, 66281.62, -18624.03, -37976.46, -39525.68, -38950.17, -34249.27, -14175.90, -34075.70, 0.000, 0.000, 0.000, 19:58:32.695, 1575939512695
214, 66622.48, -18764.80, -37227.48, -38337.80, -38994.54, -34281.18, -14217.32, -34008.40, 0.000, 0.000, 0.000, 19:58:32.696, 1575939512696
215, 66759.18, -18758.97, -37106.49, -37679.05, -39019.19, -34291.06, -14248.21, -34025.77, 0.000, 0.000, 0.000, 19:58:32.701, 1575939512701
216, 66442.32, -18609.08, -37850.53, -38823.01, -38968.84, -34259.79, -14204.13, -34099.29, 0.000, 0.000, 0.000, 19:58:32.702, 1575939512702
217, 66276.72, -18589.81, -38049.35, -39586.30, -38929.18, -34239.81, -14161.53, -34080.31, 0.000, 0.000, 0.000, 19:58:32.708, 1575939512708
218, 66560.09, -18737.96, -37348.11, -38585.50, -38977.08, -34272.84, -14200.38, -34012.92, 0.000, 0.000, 0.000, 19:58:32.715, 1575939512715
219, 66773.17, -18782.77, -37032.39, -37641.01, -39026.39, -34296.27, -14251.34, -34016.61, 0.000, 0.000, 0.000, 19:58:32.716, 1575939512716
220, 66506.01, -18639.70, -37709.38, -38551.24, -38991.88, -34271.41, -14224.74, -34094.25, 0.098, 0.818, 0.566, 19:58:32.724, 1575939512724
221, 66267.16, -18573.72, -38102.70, -39584.78, -38937.52, -34237.33, -14168.59, -34092.51, 0.000, 0.000, 0.000, 19:58:32.724, 1575939512724
222, 66493.48, -18710.51, -37493.98, -38848.43, -38963.07, -34260.06, -14189.45, -34021.41, 0.000, 0.000, 0.000, 19:58:32.729, 1575939512729
223, 66774.83, -18789.93, -37002.86, -37695.84, -39016.58, -34292.29, -14243.29, -34006.32, 0.000, 0.000, 0.000, 19:58:32.730, 1575939512730
224, 66581.44, -18671.46, -37554.30, -38291.29, -38999.90, -34280.45, -14234.31, -34084.75, 0.000, 0.000, 0.000, 19:58:32.738, 1575939512738
225, 66270.75, -18586.32, -38109.43, -39513.61, -38942.46, -34244.01, -14175.12, -34104.20, 0.000, 0.000, 0.000, 19:58:32.739, 1575939512739
226, 66425.23, -18688.94, -37641.10, -39086.98, -38955.25, -34256.64, -14177.67, -34035.54, 0.000, 0.000, 0.000, 19:58:32.746, 1575939512746
227, 66753.64, -18794.58, -37019.50, -37808.62, -39011.97, -34287.33, -14228.65, -33997.27, 0.000, 0.000, 0.000, 19:58:32.747, 1575939512747
228, 66644.72, -18699.69, -37404.23, -38051.92, -38998.70, -34274.88, -14223.80, -34055.47, 0.000, 0.000, 0.000, 19:58:32.753, 1575939512753
229, 66308.41, -18569.96, -38080.40, -39381.09, -38932.07, -34234.24, -14166.38, -34097.50, 0.000, 0.000, 0.000, 19:58:32.754, 1575939512754
230, 66368.81, -18656.04, -37774.22, -39291.35, -38938.46, -34249.04, -14166.09, -34046.15, 0.092, 0.822, 0.570, 19:58:32.760, 1575939512760
231, 66713.74, -18794.51, -37068.11, -37979.73, -39003.37, -34294.10, -14228.02, -34004.47, 0.000, 0.000, 0.000, 19:58:32.761, 1575939512761
232, 66707.84, -18723.74, -37261.12, -37862.18, -38997.51, -34282.90, -14230.95, -34043.52, 0.000, 0.000, 0.000, 19:58:32.766, 1575939512766
233, 66352.45, -18589.81, -38008.96, -39194.16, -38943.38, -34250.96, -14180.37, -34105.03, 0.000, 0.000, 0.000, 19:58:32.775, 1575939512775
234, 66303.74, -18649.71, -37915.08, -39465.82, -38945.54, -34259.12, -14174.56, -34075.73, 0.000, 0.000, 0.000, 19:58:32.775, 1575939512775
235, 66648.52, -18786.30, -37162.61, -38207.38, -38995.75, -34288.18, -14219.29, -34009.72, 0.000, 0.000, 0.000, 19:58:32.782, 1575939512782
236, 66733.81, -18765.61, -37149.67, -37717.70, -39021.81, -34298.39, -14250.22, -34042.46, 0.000, 0.000, 0.000, 19:58:32.783, 1575939512783
237, 66405.60, -18603.27, -37913.41, -38956.90, -38958.22, -34253.31, -14192.60, -34103.48, 0.000, 0.000, 0.000, 19:58:32.790, 1575939512790
238, 66281.46, -18611.47, -38015.27, -39555.32, -38937.16, -34243.41, -14162.06, -34081.43, 0.000, 0.000, 0.000, 19:58:32.791, 1575939512791
239, 66595.50, -18757.72, -37288.05, -38455.44, -38985.38, -34277.38, -14203.57, -34013.48, 0.000, 0.000, 0.000, 19:58:32.799, 1575939512799
240, 66768.57, -18783.31, -37074.03, -37654.69, -39029.03, -34302.64, -14251.92, -34029.93, 0.000, 0.000, 0.000, 19:58:32.799, 1575939512799
241, 66477.33, -18631.88, -37789.11, -38696.99, -38981.42, -34266.25, -14208.42, -34096.07, 0.090, 0.826, 0.584, 19:58:32.821, 1575939512821
242, 66268.74, -18593.28, -38085.67, -39600.34, -38934.64, -34239.90, -14156.39, -34084.73, 0.000, 0.000, 0.000, 19:58:32.821, 1575939512821
243, 66525.09, -18736.06, -37428.53, -38719.01, -38977.39, -34272.91, -14190.32, -34018.82, 0.000, 0.000, 0.000, 19:58:32.821, 1575939512821
244, 66771.32, -18789.95, -37024.59, -37666.38, -39024.20, -34291.96, -14235.60, -34006.12, 0.000, 0.000, 0.000, 19:58:32.821, 1575939512821
245, 66543.71, -18650.90, -37641.50, -38427.59, -38985.60, -34263.99, -14206.99, -34077.29, 0.000, 0.000, 0.000, 19:58:32.822, 1575939512822
246, 66269.50, -18580.63, -38116.72, -39559.93, -38933.96, -34238.87, -14154.04, -34092.58, 0.000, 0.000, 0.000, 19:58:32.822, 1575939512822
247, 66454.38, -18708.54, -37575.56, -38966.24, -38959.80, -34261.29, -14174.56, -34028.25, 0.000, 0.000, 0.000, 19:58:32.828, 1575939512828
248, 66764.50, -18792.43, -37015.11, -37744.88, -39008.84, -34282.97, -14223.84, -33995.19, 0.000, 0.000, 0.000, 19:58:32.829, 1575939512829
249, 66611.02, -18691.73, -37483.07, -38168.22, -38997.78, -34275.15, -14221.41, -34067.57, 0.000, 0.000, 0.000, 19:58:32.836, 1575939512836
250, 66284.84, -18585.86, -38099.96, -39451.18, -38937.65, -34238.40, -14165.15, -34100.51, 0.000, 0.000, 0.000, 19:58:32.843, 1575939512843
251, 66390.76, -18676.83, -37711.08, -39187.28, -38952.14, -34252.84, -14171.03, -34044.54, 0.090, 0.820, 0.576, 19:58:32.844, 1575939512844
252, 66727.47, -18795.60, -37051.30, -37887.73, -39024.76, -34299.13, -14240.00, -34013.16, 0.000, 0.000, 0.000, 19:58:32.850, 1575939512850
253, 66669.82, -18710.96, -37352.07, -37959.39, -39019.62, -34291.48, -14247.43, -34067.41, 0.000, 0.000, 0.000, 19:58:32.851, 1575939512851
254, 66320.22, -18593.50, -38063.21, -39291.77, -38955.78, -34251.01, -14185.44, -34112.23, 0.000, 0.000, 0.000, 19:58:32.858, 1575939512858
255, 66322.97, -18673.12, -37867.74, -39387.77, -38958.08, -34263.97, -14178.76, -34072.44, 0.000, 0.000, 0.000, 19:58:32.859, 1575939512859
0, 66675.61, -18804.37, -37139.14, -38109.81, -39016.76, -34304.79, -14233.77, -34019.46, 0.000, 0.000, 0.000, 19:58:32.865, 1575939512865
1, 66723.30, -18750.07, -37218.71, -37793.91, -39016.18, -34291.75, -14236.94, -34041.28, 0.000, 0.000, 0.000, 19:58:32.866, 1575939512866
2, 66372.03, -18604.65, -37966.20, -39064.68, -38958.71, -34251.36, -14180.97, -34098.68, 0.000, 0.000, 0.000, 19:58:32.873, 1575939512873
3, 66296.10, -18621.71, -37964.64, -39504.52, -38930.79, -34233.06, -14149.39, -34057.57, 0.000, 0.000, 0.000, 19:58:32.874, 1575939512874
4, 66620.13, -18769.09, -37222.38, -38325.68, -38984.01, -34270.16, -14197.58, -33992.51, 0.000, 0.000, 0.000, 19:58:32.880, 1575939512880
5, 66749.91, -18769.85, -37118.27, -37690.98, -39020.64, -34293.77, -14241.99, -34023.18, 0.096, 0.818, 0.574, 19:58:32.881, 1575939512881
6, 66440.36, -18618.15, -37858.80, -38831.55, -38971.05, -34260.84, -14201.43, -34096.80, 0.000, 0.000, 0.000, 19:58:32.892, 1575939512892
7, 66270.10, -18601.03, -38053.62, -39584.11, -38934.55, -34241.33, -14159.07, -34078.56, 0.000, 0.000, 0.000, 19:58:32.892, 1575939512892
8, 66550.88, -18751.19, -37357.23, -38588.48, -38985.78, -34280.85, -14200.11, -34015.60, 0.000, 0.000, 0.000, 19:58:32.895, 1575939512895
9, 66764.46, -18792.63, -37049.96, -37661.10, -39031.26, -34306.95, -14251.61, -34021.25, 0.000, 0.000, 0.000, 19:58:32.903, 1575939512903
10, 66502.65, -18648.98, -37713.29, -38567.13, -38986.18, -34276.00, -14218.03, -34095.26, 0.000, 0.000, 0.000, 19:58:32.904, 1575939512904
11, 66256.00, -18597.23, -38097.61, -39584.09, -38942.39, -34254.43, -14173.69, -34104.04, 0.000, 0.000, 0.000, 19:58:32.915, 1575939512915
12, 66480.26, -18723.68, -37501.89, -38851.67, -38980.14, -34281.83, -14203.44, -34040.48, 0.000, 0.000, 0.000, 19:58:32.915, 1575939512915
13, 66756.74, -18797.86, -37023.85, -37718.25, -39031.66, -34310.60, -14255.03, -34023.96, 0.000, 0.000, 0.000, 19:58:32.919, 1575939512919
14, 66572.03, -18667.39, -37564.14, -38310.26, -39000.37, -34284.40, -14233.52, -34089.11, 0.000, 0.000, 0.000, 19:58:32.920, 1575939512920
15, 66275.00, -18572.42, -38110.21, -39512.99, -38944.76, -34244.86, -14179.07, -34106.77, 0.088, 0.824, 0.572, 19:58:32.926, 1575939512926
16, 66423.93, -18677.83, -37644.23, -39088.10, -38957.21, -34252.19, -14179.66, -34035.36, 0.000, 0.000, 0.000, 19:58:32.927, 1575939512927
17, 66740.43, -18799.72, -37029.60, -37820.96, -39018.81, -34294.26, -14238.44, -34005.03, 0.000, 0.000, 0.000, 19:58:32.938, 1575939512938
18, 66637.34, -18707.07, -37411.68, -38061.31, -39005.49, -34283.91, -14237.21, -34067.28, 0.000, 0.000, 0.000, 19:58:32.938, 1575939512938
19, 66298.58, -18598.60, -38074.39, -39359.72, -38954.51, -34258.18, -14187.70, -34116.27, 0.000, 0.000, 0.000, 19:58:32.940, 1575939512940
20, 66346.97, -18678.88, -37799.53, -39291.75, -38963.11, -34272.42, -14187.81, -34072.80, 0.000, 0.000, 0.000, 19:58:32.941, 1575939512941
21, 66673.48, -18810.47, -37117.35, -38030.06, -39025.77, -34313.37, -14245.77, -34030.21, 0.000, 0.000, 0.000, 19:58:32.947, 1575939512947
22, 66663.56, -18749.20, -37299.52, -37898.43, -39029.36, -34310.87, -14256.77, -34073.80, 0.000, 0.000, 0.000, 19:58:32.948, 1575939512948
23, 66337.88, -18602.44, -38004.80, -39167.83, -38960.59, -34263.68, -14190.85, -34114.44, 0.000, 0.000, 0.000, 19:58:32.954, 1575939512954
24, 66314.12, -18640.28, -37906.37, -39434.64, -38949.79, -34259.19, -14173.62, -34074.83, 0.000, 0.000, 0.000, 19:58:32.966, 1575939512966
25, 66644.20, -18784.56, -37182.17, -38225.62, -39004.89, -34297.84, -14228.27, -34021.05, 0.092, 0.824, 0.562, 19:58:32.966, 1575939512966
26, 66731.87, -18761.76, -37167.17, -37755.76, -39029.23, -34307.42, -14257.98, -34053.06, 0.000, 0.000, 0.000, 19:58:32.970, 1575939512970
27, 66407.79, -18611.36, -37897.80, -38945.10, -38970.82, -34268.78, -14209.23, -34116.83, 0.000, 0.000, 0.000, 19:58:32.971, 1575939512971
28, 66281.84, -18615.96, -37998.21, -39535.88, -38943.51, -34254.65, -14178.09, -34091.19, 0.000, 0.000, 0.000, 19:58:32.981, 1575939512981
29, 66581.22, -18762.19, -37294.20, -38470.30, -38990.49, -34287.11, -14215.80, -34020.61, 0.000, 0.000, 0.000, 19:58:32.982, 1575939512982
30, 66750.13, -18785.12, -37079.11, -37686.96, -39030.82, -34309.95, -14259.18, -34033.57, 0.000, 0.000, 0.000, 19:58:32.986, 1575939512986
31, 66465.21, -18637.09, -37770.96, -38687.20, -38986.61, -34281.52, -14224.07, -34106.37, 0.000, 0.000, 0.000, 19:58:32.986, 1575939512986
32, 66277.99, -18590.71, -38062.00, -39574.41, -38931.33, -34242.58, -14164.77, -34088.27, 0.000, 0.000, 0.000, 19:58:32.993, 1575939512993
33, 66521.98, -18730.20, -37425.31, -38727.44, -38971.32, -34272.42, -14193.63, -34022.71, 0.000, 0.000, 0.000, 19:58:32.993, 1575939512993
34, 66757.95, -18788.70, -37031.68, -37697.47, -39024.82, -34303.40, -14248.28, -34021.12, 0.000, 0.000, 0.000, 19:58:33.000, 1575939513000
35, 66535.64, -18654.88, -37628.42, -38434.58, -38991.19, -34282.03, -14222.68, -34093.23, 0.100, 0.830, 0.566, 19:58:33.001, 1575939513001
36, 66269.26, -18582.10, -38093.45, -39540.59, -38936.74, -34251.88, -14166.83, -34102.95, 0.000, 0.000, 0.000, 19:58:33.008, 1575939513008
37, 66455.84, -18701.55, -37574.06, -38974.89, -38963.52, -34270.27, -14184.39, -34039.61, 0.000, 0.000, 0.000, 19:58:33.008, 1575939513008
38, 66748.16, -18798.29, -37029.78, -37777.33, -39025.30, -34305.88, -14241.48, -34016.76, 0.000, 0.000, 0.000, 19:58:33.014, 1575939513014
39, 66605.38, -18686.82, -37492.61, -38185.65, -39008.62, -34290.12, -14231.04, -34080.13, 0.000, 0.000, 0.000, 19:58:33.022, 1575939513022
40, 66290.71, -18584.45, -38096.69, -39436.50, -38950.57, -34251.41, -14173.38, -34105.34, 0.000, 0.000, 0.000, 19:58:33.023, 1575939513023
41, 66387.90, -18676.83, -37728.45, -39191.14, -38963.76, -34263.84, -14178.54, -34049.02, 0.000, 0.000, 0.000, 19:58:33.033, 1575939513033
42, 66712.78, -18792.43, -37078.64, -37927.29, -39019.37, -34299.06, -14233.81, -34008.07, 0.000, 0.000, 0.000, 19:58:33.033, 1575939513033
43, 66657.23, -18717.75, -37357.50, -37976.89, -39016.46, -34293.09, -14237.28, -34060.14, 0.000, 0.000, 0.000, 19:58:33.037, 1575939513037
44, 66321.55, -18591.71, -38053.02, -39275.75, -38957.19, -34254.29, -14179.45, -34106.73, 0.000, 0.000, 0.000, 19:58:33.038, 1575939513038
45, 66332.24, -18653.89, -37867.54, -39381.25, -38957.23, -34259.61, -14171.59, -34064.75, 0.000, 0.000, 0.000, 19:58:33.045, 1575939513045
46, 66666.27, -18785.12, -37156.24, -38128.39, -39013.34, -34297.66, -14226.62, -34014.01, 0.098, 0.822, 0.566, 19:58:33.046, 1575939513046
47, 66708.82, -18742.07, -37230.47, -37811.80, -39025.86, -34303.09, -14250.02, -34049.21, 0.000, 0.000, 0.000, 19:58:33.053, 1575939513053
48, 66378.22, -18595.73, -37961.98, -39060.70, -38965.15, -34258.92, -14198.12, -34104.31, 0.000, 0.000, 0.000, 19:58:33.053, 1575939513053
49, 66297.93, -18625.08, -37962.22, -39490.68, -38946.62, -34253.46, -14172.01, -34073.98, 0.000, 0.000, 0.000, 19:58:33.060, 1575939513060
50, 66608.89, -18773.23, -37244.98, -38344.28, -39002.03, -34295.06, -14223.22, -34020.79, 0.000, 0.000, 0.000, 19:58:33.061, 1575939513061
51, 66740.23, -18769.47, -37133.00, -37715.01, -39033.52, -34311.56, -14262.33, -34046.22, 0.000, 0.000, 0.000, 19:58:33.068, 1575939513068
52, 66436.84, -18622.15, -37849.91, -38821.00, -38987.39, -34283.26, -14219.67, -34116.56, 0.000, 0.000, 0.000, 19:58:33.069, 1575939513069
53, 66273.84, -18602.62, -38045.53, -39563.52, -38948.58, -34257.80, -14174.27, -34091.64, 0.000, 0.000, 0.000, 19:58:33.074, 1575939513074
54, 66552.20, -18740.08, -37371.04, -38606.80, -38988.19, -34287.51, -14206.70, -34022.13, 0.000, 0.000, 0.000, 19:58:33.075, 1575939513075
55, 66759.00, -18777.39, -37063.66, -37693.67, -39032.80, -34311.34, -14250.47, -34024.90, 0.000, 0.000, 0.000, 19:58:33.083, 1575939513083
56, 66505.38, -18645.85, -37713.34, -38566.26, -38999.05, -34287.82, -14220.96, -34098.05, 0.094, 0.826, 0.572, 19:58:33.089, 1575939513089
57, 66275.76, -18580.96, -38091.64, -39562.39, -38946.26, -34251.97, -14165.46, -34091.24, 0.000, 0.000, 0.000, 19:58:33.090, 1575939513090
58, 66490.54, -18710.87, -37508.37, -38850.37, -38977.21, -34276.04, -14190.27, -34026.55, 0.000, 0.000, 0.000, 19:58:33.097, 1575939513097
59, 66760.92, -18788.38, -37038.65, -37734.82, -39032.02, -34308.63, -14244.19, -34012.71, 0.000, 0.000, 0.000, 19:58:33.098, 1575939513098
60, 66568.97, -18672.69, -37568.65, -38306.33, -39010.32, -34293.41, -14229.05, -34084.26, 0.000, 0.000, 0.000, 19:58:33.104, 1575939513104
61, 66275.98, -18579.24, -38102.30, -39487.29, -38947.27, -34251.45, -14165.33, -34098.93, 0.000, 0.000, 0.000, 19:58:33.105, 1575939513105
62, 66422.74, -18674.97, -37650.02, -39081.35, -38957.95, -34257.76, -14166.76, -34031.89, 0.000, 0.000, 0.000, 19:58:33.112, 1575939513112
63, 66725.03, -18791.27, -37052.02, -37842.53, -39028.25, -34307.56, -14234.57, -34010.37, 0.000, 0.000, 0.000, 19:58:33.113, 1575939513113
64, 66621.14, -18698.40, -37432.58, -38079.95, -39023.29, -34302.71, -14238.87, -34074.77, 0.000, 0.000, 0.000, 19:58:33.120, 1575939513120
65, 66293.69, -18575.77, -38081.38, -39363.61, -38957.14, -34257.80, -14175.68, -34108.85, 0.000, 0.000, 0.000, 19:58:33.121, 1575939513121
66, 66351.11, -18654.68, -37794.72, -39285.78, -38960.16, -34263.97, -14171.34, -34055.74, 0.090, 0.816, 0.568, 19:58:33.127, 1575939513127
67, 66671.54, -18796.07, -37118.36, -38022.84, -39029.09, -34311.85, -14240.83, -34020.54, 0.000, 0.000, 0.000, 19:58:33.127, 1575939513127
68, 66661.48, -18740.02, -37303.47, -37892.78, -39035.53, -34310.42, -14252.75, -34067.99, 0.000, 0.000, 0.000, 19:58:33.136, 1575939513136
69, 66340.51, -18590.77, -38012.29, -39171.18, -38966.40, -34259.90, -14185.36, -34111.22, 0.000, 0.000, 0.000, 19:58:33.137, 1575939513137
70, 66313.96, -18621.84, -37912.67, -39436.66, -38949.77, -34255.90, -14164.57, -34069.29, 0.000, 0.000, 0.000, 19:58:33.143, 1575939513143
71, 66634.84, -18762.25, -37190.93, -38231.03, -39003.41, -34291.20, -14213.90, -34010.77, 0.000, 0.000, 0.000, 19:58:33.151, 1575939513151
72, 66714.14, -18749.67, -37176.49, -37757.32, -39034.55, -34305.10, -14247.49, -34045.26, 0.000, 0.000, 0.000, 19:58:33.152, 1575939513152
73, 66396.41, -18604.36, -37907.75, -38942.57, -38983.09, -34270.79, -14201.65, -34110.28, 0.000, 0.000, 0.000, 19:58:33.158, 1575939513158
74, 66275.36, -18603.94, -38002.77, -39529.57, -38949.25, -34252.68, -14164.70, -34078.68, 0.000, 0.000, 0.000, 19:58:33.159, 1575939513159
75, 66568.25, -18743.75, -37303.47, -38473.65, -39001.69, -34291.42, -14213.14, -34022.26, 0.000, 0.000, 0.000, 19:58:33.164, 1575939513164
76, 66736.36, -18767.22, -37091.98, -37697.49, -39040.34, -34309.90, -14255.23, -34034.78, 0.082, 0.814, 0.568, 19:58:33.165, 1575939513165
77, 66460.05, -18624.61, -37781.18, -38696.16, -38996.39, -34278.43, -14218.46, -34103.42, 0.000, 0.000, 0.000, 19:58:33.172, 1575939513172
78, 66262.95, -18579.33, -38068.13, -39574.10, -38950.15, -34253.69, -14169.06, -34092.87, 0.000, 0.000, 0.000, 19:58:33.173, 1575939513173
79, 66506.12, -18729.64, -37433.16, -38728.84, -38994.61, -34295.13, -14208.71, -34033.97, 0.000, 0.000, 0.000, 19:58:33.180, 1575939513180
80, 66743.38, -18787.24, -37047.30, -37714.12, -39043.22, -34324.37, -14258.56, -34029.59, 0.000, 0.000, 0.000, 19:58:33.181, 1575939513181
81, 66528.02, -18646.74, -37638.19, -38451.05, -39000.57, -34295.73, -14224.11, -34092.20, 0.000, 0.000, 0.000, 19:58:33.188, 1575939513188
82, 66261.56, -18583.89, -38092.94, -39547.90, -38952.18, -34267.50, -14174.83, -34107.53, 0.000, 0.000, 0.000, 19:58:33.189, 1575939513189
83, 66438.70, -18696.81, -37572.81, -38979.18, -38981.82, -34288.94, -14198.54, -34048.57, 0.000, 0.000, 0.000, 19:58:33.195, 1575939513195
84, 66726.84, -18797.66, -37038.23, -37801.07, -39039.60, -34324.14, -14253.75, -34026.39, 0.000, 0.000, 0.000, 19:58:33.196, 1575939513196
85, 66583.88, -18686.50, -37499.18, -38217.44, -39017.02, -34305.99, -14239.94, -34085.31, 0.000, 0.000, 0.000, 19:58:33.202, 1575939513202
86, 66276.63, -18573.45, -38091.11, -39456.26, -38948.67, -34261.56, -14174.45, -34103.62, 0.082, 0.822, 0.566, 19:58:33.211, 1575939513211
87, 66377.88, -18670.32, -37716.69, -39200.51, -38960.50, -34273.79, -14176.68, -34045.86, 0.000, 0.000, 0.000, 19:58:33.211, 1575939513211
88, 66708.91, -18773.92, -37064.02, -37933.23, -39010.36, -34295.62, -14221.05, -33992.96, 0.000, 0.000, 0.000, 19:58:33.218, 1575939513218
89, 66655.49, -18697.70, -37342.52, -37983.82, -39004.38, -34285.70, -14220.51, -34039.83, 0.000, 0.000, 0.000, 19:58:33.219, 1575939513219
90, 66324.24, -18565.76, -38037.50, -39277.02, -38949.90, -34247.59, -14166.27, -34090.16, 0.000, 0.000, 0.000, 19:58:33.226, 1575939513226
91, 66330.09, -18633.84, -37853.30, -39375.14, -38962.26, -34263.52, -14166.38, -34058.29, 0.000, 0.000, 0.000, 19:58:33.226, 1575939513226
92, 66656.30, -18779.96, -37144.66, -38124.32, -39020.42, -34306.86, -14221.19, -34010.23, 0.000, 0.000, 0.000, 19:58:33.233, 1575939513233
93, 66694.61, -18731.14, -37233.85, -37833.70, -39024.11, -34302.48, -14234.64, -34043.89, 0.000, 0.000, 0.000, 19:58:33.234, 1575939513234
94, 66360.74, -18588.29, -37962.65, -39080.66, -38964.83, -34262.96, -14183.68, -34101.92, 0.000, 0.000, 0.000, 19:58:33.239, 1575939513239
95, 66288.97, -18612.39, -37963.81, -39502.28, -38944.88, -34255.99, -14159.07, -34068.95, 0.000, 0.000, 0.000, 19:58:33.240, 1575939513240
96, 66607.46, -18757.40, -37244.11, -38351.73, -38995.07, -34287.11, -14199.59, -34001.94, 0.092, 0.816, 0.570, 19:58:33.247, 1575939513247
97, 66716.31, -18771.29, -37141.31, -37718.95, -39037.41, -34308.96, -14243.54, -34029.34, 0.000, 0.000, 0.000, 19:58:33.248, 1575939513248
98, 66419.44, -18615.81, -37860.03, -38823.70, -38980.68, -34264.82, -14193.13, -34089.18, 0.000, 0.000, 0.000, 19:58:33.255, 1575939513255
99, 66264.60, -18602.04, -38044.57, -39547.86, -38943.04, -34242.65, -14151.54, -34069.11, 0.000, 0.000, 0.000, 19:58:33.256, 1575939513256
100, 66539.48, -18739.70, -37372.47, -38585.12, -38988.04, -34273.74, -14187.48, -34003.66, 0.000, 0.000, 0.000, 19:58:33.263, 1575939513263
101, 66743.05, -18772.80, -37071.35, -37687.72, -39027.31, -34292.63, -14228.96, -34001.18, 0.000, 0.000, 0.000, 19:58:33.269, 1575939513269
102, 66482.04, -18644.08, -37717.81, -38558.19, -38993.45, -34271.01, -14203.44, -34077.74, 0.000, 0.000, 0.000, 19:58:33.270, 1575939513270
103, 66249.54, -18588.92, -38094.75, -39544.93, -38945.41, -34243.18, -14157.13, -34082.18, 0.000, 0.000, 0.000, 19:58:33.278, 1575939513278
104, 66470.51, -18711.52, -37508.80, -38835.64, -38972.01, -34265.36, -14179.83, -34016.92, 0.000, 0.000, 0.000, 19:58:33.279, 1575939513279
105, 66733.27, -18789.30, -37041.33, -37727.20, -39029.68, -34301.46, -14237.70, -34007.29, 0.000, 0.000, 0.000, 19:58:33.287, 1575939513287
106, 66553.66, -18665.45, -37571.34, -38309.14, -39004.57, -34280.36, -14220.22, -34077.07, 0.000, 0.000, 0.000, 19:58:33.288, 1575939513288
107, 66264.63, -18580.69, -38100.69, -39484.40, -38949.70, -34248.06, -14165.46, -34096.96, 0.094, 0.820, 0.578, 19:58:33.293, 1575939513293
108, 66410.96, -18691.36, -37646.06, -39067.32, -38973.80, -34266.92, -14179.66, -34038.62, 0.000, 0.000, 0.000, 19:58:33.294, 1575939513294
109, 66720.20, -18797.30, -37047.03, -37836.79, -39032.13, -34300.34, -14241.46, -34007.98, 0.000, 0.000, 0.000, 19:58:33.299, 1575939513299
110, 66614.63, -18703.65, -37421.49, -38084.24, -39018.63, -34290.50, -14240.83, -34065.89, 0.000, 0.000, 0.000, 19:58:33.300, 1575939513300
111, 66297.20, -18576.00, -38063.57, -39359.88, -38950.82, -34245.04, -14176.19, -34097.18, 0.000, 0.000, 0.000, 19:58:33.307, 1575939513307
112, 66354.15, -18653.80, -37770.47, -39269.55, -38954.20, -34253.80, -14171.12, -34044.59, 0.000, 0.000, 0.000, 19:58:33.308, 1575939513308
113, 66676.37, -18782.93, -37090.84, -38006.95, -39018.61, -34291.91, -14228.16, -34000.27, 0.000, 0.000, 0.000, 19:58:33.314, 1575939513314
114, 66660.21, -18737.13, -37292.45, -37894.68, -39039.04, -34301.03, -14251.90, -34053.48, 0.000, 0.000, 0.000, 19:58:33.315, 1575939513315
115, 66324.58, -18602.55, -38017.84, -39180.30, -38983.14, -34267.61, -14201.45, -34110.97, 0.000, 0.000, 0.000, 19:58:33.321, 1575939513321
116, 66310.72, -18628.44, -37902.43, -39427.09, -38953.39, -34250.67, -14167.52, -34054.42, 0.000, 0.000, 0.000, 19:58:33.322, 1575939513322
117, 66630.05, -18780.81, -37179.71, -38213.79, -39009.65, -34290.12, -14214.95, -33996.13, 0.086, 0.816, 0.584, 19:58:33.329, 1575939513329
118, 66700.87, -18768.49, -37180.36, -37756.57, -39037.30, -34306.73, -14244.92, -34031.18, 0.000, 0.000, 0.000, 19:58:33.337, 1575939513337
119, 66387.34, -18613.66, -37912.96, -38945.95, -38975.65, -34265.85, -14191.01, -34092.20, 0.000, 0.000, 0.000, 19:58:33.338, 1575939513338
120, 66268.74, -18620.14, -38006.88, -39521.66, -38949.30, -34254.76, -14159.14, -34070.56, 0.000, 0.000, 0.000, 19:58:33.344, 1575939513344
121, 66567.65, -18760.71, -37309.17, -38458.32, -38998.65, -34291.98, -14203.68, -34011.57, 0.000, 0.000, 0.000, 19:58:33.345, 1575939513345
122, 66730.57, -18782.93, -37105.39, -37697.04, -39033.16, -34310.35, -14245.06, -34027.00, 0.000, 0.000, 0.000, 19:58:33.351, 1575939513351
123, 66450.08, -18641.27, -37798.23, -38706.71, -38987.86, -34283.77, -14207.60, -34103.44, 0.000, 0.000, 0.000, 19:58:33.352, 1575939513352
124, 66260.47, -18597.81, -38080.53, -39576.76, -38941.21, -34255.70, -14160.57, -34095.04, 0.000, 0.000, 0.000, 19:58:33.359, 1575939513359
125, 66502.67, -18740.53, -37441.54, -38720.35, -38985.49, -34289.50, -14195.44, -34033.57, 0.000, 0.000, 0.000, 19:58:33.360, 1575939513360
126, 66731.94, -18806.11, -37058.79, -37709.52, -39036.96, -34319.34, -14248.92, -34033.19, 0.000, 0.000, 0.000, 19:58:33.369, 1575939513369
127, 66509.49, -18674.44, -37656.00, -38447.66, -39005.38, -34297.66, -14226.71, -34105.61, 0.074, 0.810, 0.580, 19:58:33.369, 1575939513369
128, 66251.66, -18593.92, -38107.49, -39534.25, -38949.34, -34259.25, -14170.65, -34106.13, 0.000, 0.000, 0.000, 19:58:33.375, 1575939513375
129, 66432.78, -18707.72, -37582.69, -38960.92, -38972.25, -34277.79, -14185.85, -34039.29, 0.000, 0.000, 0.000, 19:58:33.375, 1575939513375
130, 66722.37, -18796.45, -37046.83, -37780.28, -39025.94, -34305.86, -14239.00, -34015.64, 0.000, 0.000, 0.000, 19:58:33.384, 1575939513384
131, 66575.25, -18695.58, -37505.85, -38199.60, -39009.89, -34293.14, -14229.63, -34083.37, 0.000, 0.000, 0.000, 19:58:33.385, 1575939513385
132, 66262.33, -18595.40, -38102.73, -39431.02, -38955.71, -34259.25, -14175.83, -34114.53, 0.000, 0.000, 0.000, 19:58:33.390, 1575939513390
133, 66373.19, -18679.69, -37723.39, -39175.54, -38957.05, -34262.03, -14171.97, -34050.58, 0.000, 0.000, 0.000, 19:58:33.396, 1575939513396
134, 66686.72, -18804.23, -37078.28, -37918.14, -39020.80, -34304.09, -14232.23, -34016.61, 0.000, 0.000, 0.000, 19:58:33.397, 1575939513397
135, 66626.59, -18726.67, -37370.26, -37991.71, -39015.26, -34297.68, -14239.94, -34071.50, 0.000, 0.000, 0.000, 19:58:33.404, 1575939513404
136, 66299.92, -18593.46, -38057.96, -39281.54, -38951.02, -34252.13, -14181.09, -34112.88, 0.000, 0.000, 0.000, 19:58:33.405, 1575939513405
137, 66322.34, -18654.12, -37856.21, -39354.00, -38951.96, -34251.99, -14171.79, -34064.86, 0.084, 0.812, 0.580, 19:58:33.412, 1575939513412
138, 66644.83, -18792.92, -37151.93, -38103.49, -39013.89, -34290.44, -14226.42, -34016.20, 0.000, 0.000, 0.000, 19:58:33.413, 1575939513413
139, 66680.86, -18739.86, -37246.99, -37821.21, -39017.88, -34283.98, -14237.64, -34047.11, 0.000, 0.000, 0.000, 19:58:33.420, 1575939513420
140, 66347.64, -18605.37, -37976.64, -39064.97, -38957.64, -34244.05, -14181.62, -34100.69, 0.000, 0.000, 0.000, 19:58:33.421, 1575939513421
141, 66273.52, -18635.92, -37970.34, -39473.20, -38943.31, -34241.62, -14159.54, -34070.32, 0.000, 0.000, 0.000, 19:58:33.427, 1575939513427
142, 66590.05, -18773.07, -37257.50, -38326.63, -38996.46, -34278.10, -14207.30, -34011.73, 0.000, 0.000, 0.000, 19:58:33.428, 1575939513428
143, 66701.78, -18776.45, -37162.39, -37723.26, -39032.29, -34298.39, -14248.32, -34040.32, 0.000, 0.000, 0.000, 19:58:33.434, 1575939513434
144, 66411.26, -18620.08, -37870.43, -38826.01, -38973.53, -34254.05, -14199.10, -34096.73, 0.000, 0.000, 0.000, 19:58:33.435, 1575939513435
145, 66267.02, -18597.25, -38040.66, -39533.89, -38927.37, -34225.82, -14147.00, -34066.80, 0.000, 0.000, 0.000, 19:58:33.443, 1575939513443
146, 66533.09, -18747.55, -37364.40, -38558.68, -38976.52, -34264.38, -14184.62, -34007.20, 0.000, 0.000, 0.000, 19:58:33.443, 1575939513443
147, 66729.03, -18782.44, -37073.36, -37673.33, -39019.48, -34286.05, -14228.36, -34011.66, 0.090, 0.814, 0.580, 19:58:33.450, 1575939513450
148, 66479.80, -18629.78, -37719.80, -38561.47, -38972.28, -34251.68, -14191.79, -34077.25, 0.000, 0.000, 0.000, 19:58:33.456, 1575939513456
149, 66253.88, -18581.65, -38082.01, -39533.02, -38926.25, -34220.96, -14141.75, -34073.02, 0.000, 0.000, 0.000, 19:58:33.457, 1575939513457
150, 66466.44, -18716.10, -37495.07, -38803.72, -38968.90, -34255.59, -14176.24, -34016.87, 0.000, 0.000, 0.000, 19:58:33.464, 1575939513464
151, 66733.73, -18781.39, -37034.20, -37710.83, -39018.30, -34279.46, -14229.21, -34002.63, 0.000, 0.000, 0.000, 19:58:33.465, 1575939513465
152, 66546.13, -18655.90, -37567.29, -38308.45, -38987.92, -34254.72, -14207.24, -34065.78, 0.000, 0.000, 0.000, 19:58:33.471, 1575939513471
153, 66258.93, -18571.04, -38088.29, -39471.14, -38933.07, -34221.59, -14154.35, -34084.31, 0.000, 0.000, 0.000, 19:58:33.472, 1575939513472
154, 66403.21, -18688.87, -37630.14, -39040.61, -38958.04, -34247.18, -14172.70, -34027.78, 0.000, 0.000, 0.000, 19:58:33.480, 1575939513480
155, 66713.09, -18788.70, -37037.98, -37821.65, -39016.00, -34284.22, -14234.89, -33998.37, 0.000, 0.000, 0.000, 19:58:33.480, 1575939513480
156, 66609.11, -18693.48, -37413.29, -38076.51, -39003.88, -34273.79, -14234.08, -34057.44, 0.000, 0.000, 0.000, 19:58:33.487, 1575939513487
157, 66286.73, -18574.43, -38053.22, -39349.06, -38941.61, -34233.42, -14175.81, -34091.15, 0.102, 0.834, 0.564, 19:58:33.488, 1575939513488
158, 66352.07, -18650.05, -37754.62, -39253.39, -38942.79, -34238.33, -14173.11, -34033.32, 0.000, 0.000, 0.000, 19:58:33.494, 1575939513494
159, 66676.84, -18779.53, -37076.43, -37991.32, -39006.95, -34280.45, -14235.89, -33991.35, 0.000, 0.000, 0.000, 19:58:33.495, 1575939513495
160, 66659.38, -18722.31, -37275.31, -37890.03, -39014.12, -34281.16, -14251.61, -34041.01, 0.000, 0.000, 0.000, 19:58:33.501, 1575939513501
161, 66321.47, -18592.20, -37988.80, -39174.92, -38956.00, -34249.06, -14199.82, -34095.35, 0.000, 0.000, 0.000, 19:58:33.502, 1575939513502
162, 66289.33, -18646.47, -37884.64, -39418.75, -38958.02, -34260.77, -14196.20, -34068.84, 0.000, 0.000, 0.000, 19:58:33.508, 1575939513508
163, 66615.88, -18785.46, -37174.10, -38214.15, -39012.89, -34300.94, -14249.06, -34016.74, 0.000, 0.000, 0.000, 19:58:33.517, 1575939513517
164, 66706.41, -18743.59, -37166.86, -37770.47, -39019.28, -34291.42, -14261.80, -34033.03, 0.000, 0.000, 0.000, 19:58:33.518, 1575939513518
165, 66390.96, -18596.25, -37885.07, -38957.43, -38962.91, -34252.01, -14211.78, -34090.57, 0.000, 0.000, 0.000, 19:58:33.526, 1575939513526
166, 66275.16, -18605.30, -37970.29, -39514.91, -38941.25, -34244.75, -14186.14, -34071.93, 0.000, 0.000, 0.000, 19:58:33.528, 1575939513528
167, 66577.22, -18741.96, -37273.39, -38447.37, -38987.23, -34276.04, -14228.20, -34009.16, 0.000, 0.000, 0.000, 19:58:33.533, 1575939513533
168, 66736.61, -18762.77, -37077.16, -37692.10, -39029.59, -34294.10, -14271.19, -34020.11, 0.112, 0.852, 0.556, 19:58:33.533, 1575939513533
169, 66447.95, -18625.08, -37771.96, -38702.54, -38990.98, -34266.36, -14239.00, -34094.16, 0.000, 0.000, 0.000, 19:58:33.539, 1575939513539
170, 66252.22, -18590.48, -38047.38, -39559.32, -38947.11, -34240.21, -14191.73, -34084.22, 0.000, 0.000, 0.000, 19:58:33.540, 1575939513540
171, 66502.90, -18727.47, -37414.67, -38701.69, -38987.79, -34271.30, -14223.91, -34019.78, 0.000, 0.000, 0.000, 19:58:33.546, 1575939513546
172, 66733.86, -18783.73, -37044.51, -37702.68, -39040.18, -34299.15, -14277.38, -34015.87, 0.000, 0.000, 0.000, 19:58:33.547, 1575939513547
173, 66511.16, -18652.75, -37647.18, -38460.58, -39005.22, -34271.97, -14251.40, -34081.36, 0.000, 0.000, 0.000, 19:58:33.559, 1575939513559
174, 66249.92, -18583.96, -38092.36, -39542.07, -38953.01, -34238.47, -14197.67, -34088.33, 0.000, 0.000, 0.000, 19:58:33.559, 1575939513559
175, 66435.66, -18697.23, -37567.76, -38954.26, -38976.88, -34258.27, -14215.91, -34023.64, 0.000, 0.000, 0.000, 19:58:33.562, 1575939513562
176, 66720.96, -18792.63, -37042.52, -37780.84, -39035.51, -34292.78, -14275.81, -34004.85, 0.000, 0.000, 0.000, 19:58:33.563, 1575939513563
177, 66572.97, -18682.93, -37512.84, -38219.11, -39017.76, -34280.85, -14269.60, -34073.71, 0.000, 0.000, 0.000, 19:58:33.569, 1575939513569
178, 66268.74, -18580.40, -38096.38, -39448.46, -38957.55, -34240.97, -14209.16, -34100.69, 0.128, 0.848, 0.548, 19:58:33.570, 1575939513570
179, 66368.27, -18688.00, -37716.94, -39172.35, -38977.24, -34265.49, -14220.76, -34054.71, 0.000, 0.000, 0.000, 19:58:33.576, 1575939513576
180, 66687.66, -18804.16, -37084.34, -37922.53, -39039.20, -34302.53, -14283.43, -34020.38, 0.000, 0.000, 0.000, 19:58:33.583, 1575939513583
181, 66624.24, -18720.17, -37379.87, -38013.75, -39033.03, -34293.34, -14287.55, -34073.64, 0.000, 0.000, 0.000, 19:58:33.584, 1575939513584
182, 66299.23, -18588.80, -38059.90, -39302.14, -38966.44, -34249.73, -14224.02, -34111.87, 0.000, 0.000, 0.000, 19:58:33.593, 1575939513593
183, 66323.59, -18646.09, -37850.24, -39361.42, -38962.64, -34248.39, -14208.42, -34057.40, 0.000, 0.000, 0.000, 19:58:33.593, 1575939513593
184, 66650.46, -18784.05, -37145.78, -38112.11, -39026.34, -34291.62, -14265.51, -34009.88, 0.000, 0.000, 0.000, 19:58:33.598, 1575939513598
185, 66670.49, -18755.95, -37257.63, -37849.01, -39047.56, -34306.15, -14294.81, -34058.07, 0.000, 0.000, 0.000, 19:58:33.599, 1575939513599
186, 66336.38, -18609.95, -37988.22, -39102.16, -38987.59, -34267.37, -14243.45, -34114.77, 0.000, 0.000, 0.000, 19:58:33.606, 1575939513606
187, 66283.52, -18624.05, -37963.21, -39496.52, -38955.16, -34245.26, -14207.24, -34069.46, 0.000, 0.000, 0.000, 19:58:33.607, 1575939513607
188, 66604.69, -18764.78, -37238.68, -38332.84, -39007.41, -34277.79, -14248.37, -34006.19, 0.130, 0.844, 0.546, 19:58:33.614, 1575939513614
189, 66716.52, -18761.07, -37143.48, -37733.03, -39037.19, -34290.59, -14282.29, -34031.87, 0.000, 0.000, 0.000, 19:58:33.615, 1575939513615
190, 66405.98, -18620.88, -37855.81, -38847.15, -38984.30, -34259.55, -14236.14, -34097.74, 0.000, 0.000, 0.000, 19:58:33.622, 1575939513622
191, 66255.44, -18607.65, -38033.44, -39558.77, -38951.91, -34241.89, -14197.89, -34079.64, 0.000, 0.000, 0.000, 19:58:33.623, 1575939513623
192, 66536.56, -18748.42, -37352.60, -38580.00, -38994.14, -34271.95, -14231.06, -34014.46, 0.000, 0.000, 0.000, 19:58:33.628, 1575939513628
193, 66733.43, -18791.20, -37069.63, -37698.05, -39037.28, -34303.45, -14278.36, -34027.24, 0.000, 0.000, 0.000, 19:58:33.629, 1575939513629
194, 66472.19, -18651.90, -37724.22, -38590.38, -38993.89, -34276.02, -14241.28, -34097.92, 0.000, 0.000, 0.000, 19:58:33.635, 1575939513635
195, 66239.84, -18599.58, -38090.61, -39566.70, -38944.83, -34244.44, -14189.29, -34095.37, 0.000, 0.000, 0.000, 19:58:33.643, 1575939513643
196, 66460.70, -18724.82, -37500.39, -38840.82, -38980.12, -34270.45, -14214.26, -34029.55, 0.000, 0.000, 0.000, 19:58:33.644, 1575939513644
197, 66715.44, -18804.10, -37047.81, -37746.71, -39046.02, -34312.07, -14278.20, -34024.54, 0.000, 0.000, 0.000, 19:58:33.651, 1575939513651
198, 66525.61, -18689.52, -37592.39, -38354.63, -39023.95, -34298.66, -14263.50, -34098.79, 0.122, 0.840, 0.556, 19:58:33.651, 1575939513651
199, 66251.91, -18594.93, -38098.91, -39507.78, -38959.45, -34253.82, -14197.29, -34105.72, 0.000, 0.000, 0.000, 19:58:33.659, 1575939513659
200, 66408.84, -18690.39, -37631.33, -39065.95, -38971.74, -34263.82, -14199.55, -34037.57, 0.000, 0.000, 0.000, 19:58:33.659, 1575939513659
201, 66712.65, -18798.98, -37045.36, -37840.90, -39031.82, -34302.53, -14255.67, -34007.93, 0.000, 0.000, 0.000, 19:58:33.666, 1575939513666
202, 66602.36, -18703.96, -37431.46, -38107.11, -39017.18, -34287.17, -14249.06, -34065.55, 0.000, 0.000, 0.000, 19:58:33.667, 1575939513667
203, 66278.46, -18585.03, -38068.37, -39374.65, -38956.61, -34244.30, -14188.02, -34097.05, 0.000, 0.000, 0.000, 19:58:33.674, 1575939513674
204, 66344.67, -18661.63, -37768.05, -39264.75, -38958.42, -34247.72, -14181.94, -34040.57, 0.000, 0.000, 0.000, 19:58:33.675, 1575939513675
205, 66670.34, -18796.05, -37085.90, -37992.89, -39021.00, -34289.99, -14240.52, -33996.71, 0.000, 0.000, 0.000, 19:58:33.681, 1575939513681
206, 66649.16, -18728.10, -37292.50, -37904.98, -39024.89, -34285.94, -14254.56, -34043.96, 0.000, 0.000, 0.000, 19:58:33.682, 1575939513682
207, 66322.27, -18588.13, -38003.82, -39187.34, -38957.03, -34240.79, -14196.64, -34092.04, 0.000, 0.000, 0.000, 19:58:33.690, 1575939513690
208, 66301.59, -18636.62, -37885.56, -39415.00, -38947.22, -34242.07, -14179.77, -34054.36, 0.116, 0.834, 0.556, 19:58:33.691, 1575939513691
209, 66622.41, -18783.06, -37172.11, -38201.95, -39009.67, -34289.16, -14236.43, -34007.89, 0.000, 0.000, 0.000, 19:58:33.697, 1575939513697
210, 66700.80, -18751.12, -37184.79, -37772.14, -39025.94, -34293.16, -14259.72, -34037.77, 0.000, 0.000, 0.000, 19:58:33.703, 1575939513703
211, 66377.88, -18605.88, -37915.51, -38972.41, -38967.92, -34255.50, -14207.95, -34098.95, 0.000, 0.000, 0.000, 19:58:33.704, 1575939513704
212, 66273.88, -18613.46, -37993.98, -39528.90, -38942.41, -34240.50, -14176.91, -34072.77, 0.000, 0.000, 0.000, 19:58:33.710, 1575939513710
213, 66578.67, -18751.75, -37288.90, -38450.27, -38990.45, -34273.29, -14217.14, -34007.30, 0.000, 0.000, 0.000, 19:58:33.711, 1575939513711
214, 66727.95, -18771.91, -37103.22, -37703.23, -39031.66, -34295.20, -14264.21, -34026.77, 0.000, 0.000, 0.000, 19:58:33.718, 1575939513718
215, 66435.87, -18632.44, -37800.73, -38721.63, -38993.15, -34268.11, -14236.47, -34103.96, 0.000, 0.000, 0.000, 19:58:33.719, 1575939513719
216, 66242.95, -18596.23, -38074.21, -39570.88, -38952.16, -34240.59, -14192.40, -34093.25, 0.000, 0.000, 0.000, 19:58:33.726, 1575939513726
217, 66500.59, -18733.02, -37433.40, -38704.04, -38989.91, -34266.56, -14220.11, -34024.36, 0.000, 0.000, 0.000, 19:58:33.727, 1575939513727
218, 66739.58, -18789.21, -37060.82, -37705.18, -39040.74, -34291.98, -14268.66, -34017.66, 0.124, 0.820, 0.564, 19:58:33.733, 1575939513733
219, 66505.47, -18663.68, -37667.54, -38464.29, -39012.87, -34274.66, -14249.21, -34090.01, 0.000, 0.000, 0.000, 19:58:33.734, 1575939513734
220, 66241.67, -18595.24, -38114.02, -39542.83, -38957.84, -34240.73, -14193.51, -34096.47, 0.000, 0.000, 0.000, 19:58:33.741, 1575939513741
221, 66433.72, -18711.36, -37579.23, -38946.50, -38980.46, -34258.50, -14206.32, -34027.85, 0.000, 0.000, 0.000, 19:58:33.742, 1575939513742
222, 66721.30, -18799.36, -37056.66, -37776.08, -39041.28, -34298.35, -14264.35, -34009.99, 0.000, 0.000, 0.000, 19:58:33.749, 1575939513749
223, 66564.14, -18688.25, -37537.90, -38229.55, -39028.18, -34290.01, -14259.79, -34083.59, 0.000, 0.000, 0.000, 19:58:33.750, 1575939513750
224, 66268.85, -18570.86, -38115.24, -39448.14, -38962.89, -34245.46, -14196.69, -34103.13, 0.000, 0.000, 0.000, 19:58:33.755, 1575939513755
225, 66380.70, -18668.33, -37717.79, -39160.59, -38960.18, -34246.09, -14185.29, -34032.12, 0.000, 0.000, 0.000, 19:58:33.763, 1575939513763
226, 66696.13, -18796.99, -37073.30, -37906.61, -39012.55, -34276.87, -14233.46, -33989.54, 0.000, 0.000, 0.000, 19:58:33.764, 1575939513764
227, 66634.98, -18716.43, -37370.08, -37999.08, -39008.51, -34269.83, -14237.30, -34044.68, 0.000, 0.000, 0.000, 19:58:33.772, 1575939513772
228, 66320.15, -18583.22, -38055.77, -39291.48, -38950.30, -34233.48, -14184.89, -34091.13, 0.000, 0.000, 0.000, 19:58:33.772, 1575939513772
229, 66345.72, -18657.20, -37843.07, -39344.63, -38953.52, -34244.50, -14181.96, -34050.82, 0.126, 0.818, 0.566, 19:58:33.779, 1575939513779
230, 66678.88, -18786.98, -37140.98, -38092.78, -39010.10, -34281.72, -14236.21, -34005.61, 0.000, 0.000, 0.000, 19:58:33.780, 1575939513780
231, 66704.17, -18746.79, -37246.07, -37831.73, -39021.68, -34285.45, -14256.77, -34045.71, 0.000, 0.000, 0.000, 19:58:33.785, 1575939513785
232, 66366.55, -18603.85, -37977.09, -39085.13, -38963.27, -34243.63, -14202.34, -34101.56, 0.000, 0.000, 0.000, 19:58:33.785, 1575939513785
233, 66297.26, -18636.26, -37954.65, -39476.20, -38945.41, -34237.30, -14177.55, -34064.77, 0.000, 0.000, 0.000, 19:58:33.795, 1575939513795
234, 66620.58, -18778.55, -37232.57, -38319.02, -39002.25, -34278.77, -14227.87, -34005.92, 0.000, 0.000, 0.000, 19:58:33.796, 1575939513796
235, 66758.71, -18753.27, -37135.34, -37722.25, -39027.69, -34286.88, -14253.28, -34022.42, 0.000, 0.000, 0.000, 19:58:33.801, 1575939513801
236, 66452.36, -18600.83, -37849.10, -38835.08, -38968.84, -34247.34, -14198.14, -34078.23, 0.000, 0.000, 0.000, 19:58:33.802, 1575939513802
237, 66303.88, -18586.46, -38022.04, -39534.60, -38937.95, -34233.06, -14163.99, -34064.39, 0.000, 0.000, 0.000, 19:58:33.809, 1575939513809
238, 66595.77, -18710.96, -37338.79, -38554.23, -38979.68, -34261.87, -14200.78, -33999.75, 0.000, 0.000, 0.000, 19:58:33.809, 1575939513809
239, 66794.81, -18751.01, -37048.53, -37668.03, -39018.72, -34282.93, -14241.99, -34000.63, 0.120, 0.816, 0.564, 19:58:33.816, 1575939513816
240, 66533.52, -18609.71, -37708.22, -38567.80, -38981.82, -34259.77, -14215.53, -34078.34, 0.000, 0.000, 0.000, 19:58:33.817, 1575939513817
241, 66310.29, -18555.99, -38068.53, -39534.40, -38935.31, -34232.88, -14170.51, -34080.08, 0.000, 0.000, 0.000, 19:58:33.823, 1575939513823
242, 66539.73, -18681.54, -37471.18, -38796.59, -38969.30, -34261.25, -14200.78, -34018.23, 0.000, 0.000, 0.000, 19:58:33.831, 1575939513831
243, 66802.01, -18743.52, -37014.84, -37708.55, -39017.85, -34288.16, -14249.55, -34003.39, 0.000, 0.000, 0.000, 19:58:33.832, 1575939513832
244, 66607.10, -18626.76, -37554.44, -38310.89, -38993.27, -34273.71, -14230.04, -34071.16, 0.000, 0.000, 0.000, 19:58:33.838, 1575939513838
245, 66312.73, -18551.32, -38084.91, -39477.07, -38950.71, -34252.01, -14187.52, -34100.65, 0.000, 0.000, 0.000, 19:58:33.839, 1575939513839
246, 66472.72, -18643.77, -37621.38, -39037.95, -38962.33, -34260.44, -14193.49, -34034.40, 0.000, 0.000, 0.000, 19:58:33.846, 1575939513846
247, 66793.88, -18730.94, -37019.45, -37807.89, -39007.88, -34285.70, -14237.43, -33993.79, 0.000, 0.000, 0.000, 19:58:33.847, 1575939513847
248, 66673.42, -18656.20, -37408.23, -38073.63, -39009.29, -34287.20, -14245.79, -34062.63, 0.000, 0.000, 0.000, 19:58:33.854, 1575939513854
249, 66355.20, -18535.45, -38054.54, -39351.90, -38948.36, -34244.57, -14186.36, -34093.94, 0.108, 0.816, 0.566, 19:58:33.855, 1575939513855
250, 66428.89, -18607.56, -37745.52, -39239.69, -38944.34, -34244.68, -14175.52, -34032.96, 0.000, 0.000, 0.000, 19:58:33.861, 1575939513861
251, 66757.66, -18741.09, -37065.14, -37973.73, -39004.73, -34286.01, -14233.55, -33992.96, 0.000, 0.000, 0.000, 19:58:33.862, 1575939513862
252, 66730.05, -18687.35, -37276.00, -37890.30, -39019.51, -34290.41, -14253.57, -34046.85, 0.000, 0.000, 0.000, 19:58:33.868, 1575939513868
253, 66399.86, -18541.13, -37993.20, -39181.09, -38953.21, -34241.69, -14192.73, -34092.82, 0.000, 0.000, 0.000, 19:58:33.869, 1575939513869
254, 66387.43, -18578.05, -37870.61, -39402.23, -38937.16, -34232.63, -14169.96, -34044.95, 0.000, 0.000, 0.000, 19:58:33.877, 1575939513877
255, 66711.98, -18722.40, -37149.87, -38180.98, -38997.85, -34278.14, -14231.09, -33994.90, 0.000, 0.000, 0.000, 19:58:33.878, 1575939513878
0, 66781.16, -18698.24, -37161.52, -37756.10, -39018.28, -34286.46, -14262.65, -34031.65, 0.000, 0.000, 0.000, 19:58:33.883, 1575939513883
1, 66452.13, -18559.05, -37889.20, -38954.26, -38968.23, -34258.96, -14218.03, -34098.46, 0.000, 0.000, 0.000, 19:58:33.890, 1575939513890
2, 66345.32, -18571.13, -37960.79, -39498.75, -38944.61, -34250.56, -14185.27, -34072.15, 0.000, 0.000, 0.000, 19:58:33.891, 1575939513891
3, 66647.05, -18720.46, -37256.49, -38416.63, -38997.80, -34290.84, -14232.88, -34013.88, 0.104, 0.824, 0.560, 19:58:33.899, 1575939513899
4, 66804.13, -18731.34, -37073.07, -37687.86, -39027.26, -34305.32, -14269.29, -34025.03, 0.000, 0.000, 0.000, 19:58:33.899, 1575939513899
5, 66521.27, -18581.34, -37764.28, -38712.01, -38976.01, -34269.49, -14224.74, -34086.39, 0.000, 0.000, 0.000, 19:58:33.906, 1575939513906
6, 66327.19, -18550.29, -38032.39, -39549.18, -38939.53, -34246.61, -14184.66, -34079.21, 0.000, 0.000, 0.000, 19:58:33.907, 1575939513907
7, 66574.87, -18699.67, -37394.78, -38678.06, -38992.06, -34291.53, -14229.97, -34027.29, 0.000, 0.000, 0.000, 19:58:33.913, 1575939513913
8, 66823.45, -18737.38, -37015.09, -37679.88, -39025.52, -34302.28, -14266.80, -34014.37, 0.000, 0.000, 0.000, 19:58:33.914, 1575939513914
9, 66596.62, -18595.73, -37615.97, -38433.84, -38984.73, -34271.28, -14233.72, -34081.43, 0.000, 0.000, 0.000, 19:58:33.920, 1575939513920
10, 66337.18, -18526.94, -38057.20, -39507.47, -38935.55, -34242.69, -14184.35, -34094.21, 0.000, 0.000, 0.000, 19:58:33.921, 1575939513921
11, 66537.85, -18640.95, -37518.86, -38916.84, -38954.82, -34255.41, -14198.05, -34025.77, 0.000, 0.000, 0.000, 19:58:33.929, 1575939513929
12, 66823.89, -18730.45, -36992.58, -37746.48, -39015.10, -34290.52, -14255.25, -34006.59, 0.000, 0.000, 0.000, 19:58:33.929, 1575939513929
13, 66676.21, -18617.55, -37465.75, -38195.69, -39001.33, -34277.88, -14247.76, -34074.34, 0.108, 0.826, 0.552, 19:58:33.936, 1575939513936
14, 66376.05, -18515.42, -38047.07, -39412.81, -38954.33, -34248.04, -14199.71, -34103.66, 0.000, 0.000, 0.000, 19:58:33.937, 1575939513937
15, 66474.48, -18624.08, -37664.99, -39122.79, -38977.80, -34269.43, -14217.54, -34054.65, 0.000, 0.000, 0.000, 19:58:33.942, 1575939513942
16, 66791.30, -18733.60, -37029.39, -37870.71, -39025.61, -34293.34, -14262.96, -34006.93, 0.000, 0.000, 0.000, 19:58:33.950, 1575939513950
17, 66717.50, -18656.20, -37328.06, -37970.27, -39014.79, -34281.18, -14259.27, -34052.64, 0.000, 0.000, 0.000, 19:58:33.951, 1575939513951
18, 66369.95, -18547.10, -38010.84, -39259.81, -38960.43, -34248.75, -14206.88, -34098.21, 0.000, 0.000, 0.000, 19:58:33.960, 1575939513960
19, 66396.73, -18607.60, -37795.32, -39309.05, -38959.40, -34254.92, -14199.33, -34052.75, 0.000, 0.000, 0.000, 19:58:33.960, 1575939513960
20, 66739.87, -18731.32, -37095.09, -38060.13, -39016.00, -34290.19, -14250.53, -34002.41, 0.000, 0.000, 0.000, 19:58:33.965, 1575939513965
21, 66765.22, -18690.48, -37210.89, -37813.70, -39028.40, -34296.83, -14269.17, -34045.93, 0.000, 0.000, 0.000, 19:58:33.966, 1575939513966
22, 66437.48, -18545.09, -37940.27, -39074.22, -38970.42, -34259.57, -14216.02, -34105.30, 0.000, 0.000, 0.000, 19:58:33.973, 1575939513973
23, 66375.91, -18569.58, -37911.51, -39460.33, -38947.02, -34249.78, -14189.13, -34069.38, 0.102, 0.830, 0.548, 19:58:33.974, 1575939513974
24, 66696.17, -18717.80, -37194.57, -38301.88, -38999.12, -34293.43, -14240.00, -34014.91, 0.000, 0.000, 0.000, 19:58:33.981, 1575939513981
25, 66801.00, -18724.37, -37111.07, -37716.98, -39031.15, -34315.02, -14275.52, -34044.88, 0.000, 0.000, 0.000, 19:58:33.981, 1575939513981
26, 66485.69, -18574.50, -37836.72, -38855.20, -38969.97, -34278.23, -14226.21, -34109.72, 0.000, 0.000, 0.000, 19:58:33.989, 1575939513989
27, 66327.93, -18569.52, -38011.69, -39562.18, -38939.22, -34265.09, -14191.26, -34095.59, 0.000, 0.000, 0.000, 19:58:33.990, 1575939513990
28, 66611.75, -18708.14, -37324.86, -38568.70, -38980.93, -34298.75, -14224.83, -34029.43, 0.000, 0.000, 0.000, 19:58:33.996, 1575939513996
29, 66820.76, -18728.10, -37037.91, -37692.68, -39012.82, -34308.61, -14261.55, -34026.21, 0.000, 0.000, 0.000, 19:58:33.997, 1575939513997
30, 66557.63, -18591.98, -37694.25, -38595.94, -38970.91, -34281.38, -14227.20, -34094.77, 0.000, 0.000, 0.000, 19:58:34.002, 1575939514002
31, 66323.08, -18552.39, -38048.84, -39551.99, -38931.66, -34261.40, -14184.48, -34094.66, 0.000, 0.000, 0.000, 19:58:34.011, 1575939514011
32, 66553.01, -18674.61, -37457.01, -38802.20, -38967.70, -34284.25, -14212.02, -34028.07, 0.000, 0.000, 0.000, 19:58:34.011, 1575939514011
33, 66814.93, -18752.38, -37006.82, -37711.62, -39022.14, -34311.43, -14262.38, -34012.63, 0.000, 0.000, 0.000, 19:58:34.017, 1575939514017
34, 66622.14, -18628.72, -37556.05, -38330.38, -38997.00, -34292.36, -14246.67, -34084.84, 0.094, 0.836, 0.546, 19:58:34.018, 1575939514018
35, 66336.58, -18539.54, -38068.91, -39493.50, -38942.86, -34257.47, -14193.40, -34102.84, 0.000, 0.000, 0.000, 19:58:34.026, 1575939514026
36, 66488.52, -18649.83, -37601.55, -39046.89, -38966.67, -34276.09, -14210.95, -34043.89, 0.000, 0.000, 0.000, 19:58:34.026, 1575939514026
37, 66796.84, -18752.64, -37017.77, -37823.57, -39025.63, -34305.10, -14268.53, -34012.16, 0.000, 0.000, 0.000, 19:58:34.034, 1575939514034
38, 66686.30, -18650.94, -37411.21, -38103.93, -39013.88, -34289.07, -14263.23, -34071.23, 0.000, 0.000, 0.000, 19:58:34.034, 1575939514034
39, 66360.38, -18536.26, -38044.05, -39367.23, -38957.01, -34255.48, -14206.79, -34106.32, 0.000, 0.000, 0.000, 19:58:34.040, 1575939514040
40, 66429.45, -18611.76, -37733.70, -39243.31, -38957.28, -34259.46, -14201.34, -34048.90, 0.000, 0.000, 0.000, 19:58:34.041, 1575939514041
41, 66764.01, -18736.10, -37058.21, -37977.31, -39013.76, -34294.53, -14254.24, -34006.86, 0.000, 0.000, 0.000, 19:58:34.052, 1575939514052
42, 66735.78, -18680.98, -37272.83, -37898.72, -39023.48, -34299.73, -14267.32, -34060.28, 0.000, 0.000, 0.000, 19:58:34.053, 1575939514053
43, 66400.26, -18541.64, -37984.57, -39184.33, -38962.24, -34262.14, -14211.26, -34112.02, 0.000, 0.000, 0.000, 19:58:34.056, 1575939514056
44, 66382.98, -18595.73, -37859.70, -39399.39, -38955.89, -34265.25, -14197.54, -34075.52, 0.098, 0.838, 0.542, 19:58:34.057, 1575939514057
45, 66708.06, -18738.52, -37152.71, -38188.91, -39016.02, -34308.83, -14253.77, -34024.94, 0.000, 0.000, 0.000, 19:58:34.064, 1575939514064
46, 66774.90, -18709.68, -37177.72, -37774.80, -39040.20, -34317.50, -14283.26, -34056.52, 0.000, 0.000, 0.000, 19:58:34.064, 1575939514064
47, 66459.87, -18554.16, -37897.74, -38965.15, -38974.64, -34268.11, -14222.24, -34106.14, 0.000, 0.000, 0.000, 19:58:34.070, 1575939514070
48, 66360.07, -18549.69, -37956.64, -39496.56, -38938.66, -34242.67, -14183.43, -34069.04, 0.000, 0.000, 0.000, 19:58:34.077, 1575939514077
49, 66669.13, -18686.44, -37248.46, -38410.89, -38988.59, -34274.19, -14227.35, -34007.22, 0.000, 0.000, 0.000, 19:58:34.078, 1575939514078
50, 66823.69, -18704.36, -37069.90, -37679.27, -39028.43, -34295.35, -14271.23, -34025.81, 0.000, 0.000, 0.000, 19:58:34.085, 1575939514085
51, 66527.80, -18572.94, -37768.01, -38706.74, -38986.85, -34272.80, -14237.73, -34100.80, 0.000, 0.000, 0.000, 19:58:34.086, 1575939514086
52, 66334.59, -18547.68, -38026.95, -39541.93, -38948.45, -34254.85, -14195.30, -34094.70, 0.000, 0.000, 0.000, 19:58:34.093, 1575939514093
53, 66590.00, -18682.39, -37388.05, -38671.31, -38990.52, -34288.94, -14229.95, -34037.39, 0.000, 0.000, 0.000, 19:58:34.094, 1575939514094
54, 66821.61, -18734.65, -37029.75, -37691.90, -39039.00, -34313.95, -14280.17, -34036.23, 0.104, 0.842, 0.548, 19:58:34.101, 1575939514101
55, 66584.26, -18606.46, -37637.34, -38465.61, -39004.71, -34291.02, -14257.64, -34106.73, 0.000, 0.000, 0.000, 19:58:34.102, 1575939514102
56, 66325.24, -18541.13, -38071.12, -39532.21, -38951.00, -34262.79, -14207.53, -34112.34, 0.000, 0.000, 0.000, 19:58:34.108, 1575939514108
57, 66523.77, -18649.91, -37531.08, -38927.17, -38969.35, -34274.77, -14216.00, -34039.65, 0.000, 0.000, 0.000, 19:58:34.109, 1575939514109
58, 66802.08, -18747.12, -37010.60, -37757.35, -39030.48, -34311.76, -14272.59, -34022.08, 0.000, 0.000, 0.000, 19:58:34.116, 1575939514116
59, 66649.44, -18626.67, -37491.07, -38221.28, -39001.25, -34291.62, -14254.13, -34080.87, 0.000, 0.000, 0.000, 19:58:34.117, 1575939514117
60, 66341.00, -18534.89, -38060.80, -39440.14, -38944.40, -34254.41, -14197.22, -34101.77, 0.000, 0.000, 0.000, 19:58:34.123, 1575939514123
61, 66450.48, -18634.67, -37663.89, -39136.32, -38965.48, -34277.05, -14211.66, -34052.01, 0.000, 0.000, 0.000, 19:58:34.124, 1575939514124
62, 66779.61, -18742.81, -37033.51, -37890.70, -39019.82, -34308.90, -14263.68, -34013.45, 0.000, 0.000, 0.000, 19:58:34.130, 1575939514130
63, 66708.02, -18668.27, -37349.14, -38008.52, -39021.00, -34307.67, -14269.06, -34072.37, 0.000, 0.000, 0.000, 19:58:34.138, 1575939514138
64, 66373.34, -18536.21, -38025.93, -39300.27, -38957.50, -34262.18, -14206.08, -34111.31, 0.098, 0.844, 0.546, 19:58:34.139, 1575939514139
65, 66399.07, -18601.72, -37799.68, -39330.33, -38954.89, -34265.02, -14193.27, -34061.75, 0.000, 0.000, 0.000, 19:58:34.146, 1575939514146
66, 66732.16, -18741.18, -37101.04, -38073.96, -39016.93, -34306.48, -14252.68, -34018.10, 0.000, 0.000, 0.000, 19:58:34.147, 1575939514147
67, 66756.08, -18693.84, -37221.46, -37838.53, -39028.07, -34306.17, -14273.29, -34058.94, 0.000, 0.000, 0.000, 19:58:34.152, 1575939514152
68, 66417.70, -18554.09, -37948.50, -39100.00, -38971.81, -34266.72, -14225.14, -34116.50, 0.000, 0.000, 0.000, 19:58:34.153, 1575939514153
69, 66348.02, -18592.52, -37920.45, -39479.19, -38962.60, -34269.43, -14212.22, -34090.52, 0.000, 0.000, 0.000, 19:58:34.162, 1575939514162
70, 66666.38, -18734.07, -37207.32, -38310.91, -39020.02, -34312.18, -14268.50, -34038.98, 0.000, 0.000, 0.000, 19:58:34.163, 1575939514163
71, 66784.91, -18718.47, -37121.02, -37727.29, -39035.13, -34309.88, -14287.55, -34049.02, 0.000, 0.000, 0.000, 19:58:34.168, 1575939514168
72, 66477.30, -18560.91, -37839.31, -38859.00, -38977.48, -34266.70, -14235.20, -34105.50, 0.000, 0.000, 0.000, 19:58:34.169, 1575939514169
73, 66331.28, -18553.09, -37995.89, -39541.40, -38940.40, -34248.41, -14194.16, -34079.91, 0.000, 0.000, 0.000, 19:58:34.175, 1575939514175
74, 66611.30, -18700.12, -37316.21, -38542.52, -38990.27, -34284.04, -14237.32, -34017.54, 0.102, 0.844, 0.546, 19:58:34.176, 1575939514176
75, 66801.56, -18734.43, -37049.96, -37677.33, -39035.22, -34305.64, -14280.93, -34024.09, 0.000, 0.000, 0.000, 19:58:34.183, 1575939514183
76, 66537.56, -18595.82, -37711.59, -38597.04, -38990.09, -34274.32, -14246.26, -34093.05, 0.000, 0.000, 0.000, 19:58:34.184, 1575939514184
77, 66315.70, -18549.62, -38051.99, -39542.34, -38946.57, -34247.63, -14197.16, -34090.30, 0.000, 0.000, 0.000, 19:58:34.190, 1575939514190
78, 66545.12, -18681.88, -37453.81, -38780.59, -38984.48, -34277.16, -14226.64, -34028.45, 0.000, 0.000, 0.000, 19:58:34.198, 1575939514198
79, 66804.53, -18749.63, -37016.59, -37703.21, -39035.64, -34306.91, -14277.89, -34019.02, 0.000, 0.000, 0.000, 19:58:34.199, 1575939514199
80, 66604.48, -18621.66, -37568.83, -38335.68, -39003.99, -34281.96, -14255.76, -34086.99, 0.000, 0.000, 0.000, 19:58:34.205, 1575939514205
81, 66320.48, -18530.20, -38074.23, -39489.90, -38945.21, -34242.20, -14194.85, -34099.30, 0.000, 0.000, 0.000, 19:58:34.206, 1575939514206
82, 66478.29, -18644.95, -37595.34, -39017.58, -38967.63, -34265.02, -14207.06, -34041.26, 0.000, 0.000, 0.000, 19:58:34.213, 1575939514213
83, 66787.44, -18742.70, -37020.79, -37803.59, -39023.95, -34298.97, -14263.25, -34014.17, 0.000, 0.000, 0.000, 19:58:34.214, 1575939514214
84, 66655.34, -18662.81, -37427.95, -38099.15, -39027.06, -34300.85, -14271.57, -34087.17, 0.100, 0.840, 0.548, 19:58:34.220, 1575939514220
85, 66335.20, -18543.74, -38071.03, -39375.86, -38967.00, -34257.27, -14213.72, -34120.36, 0.000, 0.000, 0.000, 19:58:34.221, 1575939514221
86, 66426.41, -18608.30, -37739.60, -39228.50, -38957.99, -34247.05, -14192.53, -34047.94, 0.000, 0.000, 0.000, 19:58:34.227, 1575939514227
87, 66756.92, -18742.99, -37061.14, -37951.07, -39019.13, -34284.13, -14247.83, -34003.46, 0.000, 0.000, 0.000, 19:58:34.228, 1575939514228
88, 66726.33, -18678.01, -37288.68, -37895.79, -39023.04, -34283.15, -14259.16, -34051.09, 0.000, 0.000, 0.000, 19:58:34.235, 1575939514235
89, 66393.38, -18527.43, -37992.15, -39187.25, -38949.97, -34232.41, -14191.82, -34088.15, 0.000, 0.000, 0.000, 19:58:34.236, 1575939514236
90, 66375.09, -18580.47, -37853.82, -39381.96, -38942.84, -34232.39, -14177.24, -34046.40, 0.000, 0.000, 0.000, 19:58:34.244, 1575939514244
91, 66703.05, -18727.05, -37141.09, -38160.06, -39006.96, -34276.87, -14237.43, -34000.94, 0.000, 0.000, 0.000, 19:58:34.244, 1575939514244
92, 66765.69, -18698.89, -37172.71, -37755.98, -39031.64, -34286.50, -14267.59, -34035.98, 0.000, 0.000, 0.000, 19:58:34.257, 1575939514257
93, 66439.15, -18555.34, -37907.91, -38967.98, -38974.54, -34246.34, -14217.50, -34096.27, 0.000, 0.000, 0.000, 19:58:34.258, 1575939514258
94, 66333.36, -18571.44, -37967.25, -39489.74, -38950.91, -34236.46, -14191.43, -34070.23, 0.000, 0.000, 0.000, 19:58:34.258, 1575939514258
95, 66645.19, -18701.50, -37260.63, -38398.13, -38992.93, -34263.59, -14230.33, -34005.38, 0.104, 0.838, 0.550, 19:58:34.268, 1575939514268
96, 66798.56, -18717.78, -37089.16, -37678.16, -39027.04, -34281.29, -14267.27, -34022.64, 0.000, 0.000, 0.000, 19:58:34.268, 1575939514268
97, 66501.60, -18573.99, -37796.82, -38722.41, -38982.04, -34249.44, -14231.18, -34093.14, 0.000, 0.000, 0.000, 19:58:34.273, 1575939514273
98, 66311.56, -18548.24, -38048.43, -39541.91, -38942.55, -34226.64, -14186.85, -34078.30, 0.000, 0.000, 0.000, 19:58:34.274, 1575939514274
99, 66574.22, -18683.06, -37401.06, -38656.65, -38981.91, -34258.94, -14220.45, -34013.86, 0.000, 0.000, 0.000, 19:58:34.279, 1575939514279
100, 66806.63, -18732.75, -37044.84, -37680.39, -39024.73, -34283.39, -14265.42, -34008.51, 0.000, 0.000, 0.000, 19:58:34.280, 1575939514280
101, 66567.72, -18606.15, -37663.96, -38465.77, -38991.59, -34264.35, -14241.70, -34083.14, 0.000, 0.000, 0.000, 19:58:34.287, 1575939514287
102, 66306.98, -18547.01, -38097.68, -39527.41, -38944.79, -34238.91, -14192.66, -34091.17, 0.000, 0.000, 0.000, 19:58:34.288, 1575939514288
103, 66505.18, -18661.25, -37550.68, -38903.72, -38969.80, -34256.33, -14209.58, -34023.60, 0.000, 0.000, 0.000, 19:58:34.295, 1575939514295
104, 66798.74, -18730.96, -37024.48, -37739.04, -39011.21, -34274.59, -14251.94, -33990.21, 0.000, 0.000, 0.000, 19:58:34.296, 1575939514296
105, 66629.72, -18627.41, -37510.36, -38209.08, -38998.92, -34266.95, -14245.75, -34062.16, 0.108, 0.832, 0.552, 19:58:34.308, 1575939514308
106, 66332.87, -18525.44, -38088.78, -39434.93, -38939.24, -34227.07, -14188.26, -34084.93, 0.000, 0.000, 0.000, 19:58:34.308, 1575939514308
107, 66453.55, -18624.19, -37688.62, -39126.41, -38956.30, -34242.80, -14194.83, -34026.60, 0.000, 0.000, 0.000, 19:58:34.309, 1575939514309
108, 66779.09, -18742.94, -37059.95, -37872.48, -39024.27, -34289.14, -14257.60, -33999.44, 0.000, 0.000, 0.000, 19:58:34.309, 1575939514309
109, 66706.81, -18654.88, -37381.48, -38003.98, -39019.48, -34279.46, -14260.61, -34054.22, 0.000, 0.000, 0.000, 19:58:34.317, 1575939514317
110, 66360.29, -18528.10, -38053.69, -39288.87, -38952.03, -34226.42, -14191.95, -34082.97, 0.000, 0.000, 0.000, 19:58:34.327, 1575939514327
111, 66381.23, -18596.85, -37822.37, -39305.77, -38952.25, -34224.92, -14178.74, -34028.32, 0.000, 0.000, 0.000, 19:58:34.327, 1575939514327
112, 66713.61, -18724.30, -37122.02, -38051.59, -39007.84, -34257.78, -14232.67, -33977.46, 0.000, 0.000, 0.000, 19:58:34.332, 1575939514332
113, 66723.77, -18683.11, -37249.29, -37826.01, -39015.80, -34261.33, -14248.23, -34016.98, 0.000, 0.000, 0.000, 19:58:34.333, 1575939514333
114, 66383.96, -18549.58, -37973.67, -39077.15, -38965.04, -34228.10, -14203.71, -34079.50, 0.000, 0.000, 0.000, 19:58:34.340, 1575939514340
115, 66329.98, -18579.64, -37937.95, -39437.44, -38952.59, -34223.65, -14187.86, -34052.48, 0.110, 0.828, 0.558, 19:58:34.341, 1575939514341
116, 66648.72, -18730.11, -37222.45, -38264.09, -39015.50, -34269.87, -14247.58, -34004.87, 0.000, 0.000, 0.000, 19:58:34.348, 1575939514348
117, 66763.43, -18710.00, -37153.00, -37712.13, -39039.09, -34278.05, -14278.88, -34028.74, 0.000, 0.000, 0.000, 19:58:34.349, 1575939514349
118, 66460.70, -18558.25, -37870.29, -38853.19, -38976.99, -34237.15, -14225.68, -34085.31, 0.000, 0.000, 0.000, 19:58:34.355, 1575939514355
119, 66316.10, -18556.66, -38024.14, -39519.80, -38948.67, -34226.67, -14192.28, -34067.95, 0.000, 0.000, 0.000, 19:58:34.356, 1575939514356
120, 66599.23, -18697.95, -37340.13, -38518.58, -38995.95, -34260.02, -14231.29, -34005.85, 0.000, 0.000, 0.000, 19:58:34.362, 1575939514362
121, 66780.70, -18732.55, -37084.67, -37678.25, -39041.30, -34287.15, -14275.34, -34017.50, 0.000, 0.000, 0.000, 19:58:34.363, 1575939514363
122, 66521.12, -18580.83, -37740.47, -38598.96, -38985.02, -34248.17, -14226.64, -34072.75, 0.000, 0.000, 0.000, 19:58:34.370, 1575939514370
123, 66304.10, -18532.90, -38073.54, -39535.47, -38932.31, -34214.57, -14172.08, -34060.19, 0.000, 0.000, 0.000, 19:58:34.371, 1575939514371
124, 66524.38, -18674.61, -37471.63, -38771.56, -38971.61, -34249.62, -14204.04, -34000.63, 0.000, 0.000, 0.000, 19:58:34.377, 1575939514377
125, 66782.72, -18742.09, -37035.34, -37696.80, -39023.20, -34280.07, -14258.45, -33994.75, 0.114, 0.830, 0.554, 19:58:34.384, 1575939514384
126, 66586.72, -18612.61, -37593.49, -38342.20, -38990.47, -34251.95, -14236.25, -34062.05, 0.000, 0.000, 0.000, 19:58:34.385, 1575939514385
127, 66305.04, -18528.63, -38090.57, -39481.47, -38936.94, -34217.66, -14182.52, -34076.33, 0.000, 0.000, 0.000, 19:58:34.393, 1575939514393
128, 66470.71, -18634.58, -37602.41, -39002.70, -38957.12, -34234.29, -14192.87, -34014.97, 0.000, 0.000, 0.000, 19:58:34.393, 1575939514393
129, 66774.36, -18740.26, -37026.07, -37791.48, -39020.27, -34275.89, -14252.17, -33993.02, 0.000, 0.000, 0.000, 19:58:34.406, 1575939514406
130, 66648.05, -18646.70, -37433.85, -38099.64, -39009.07, -34265.69, -14247.76, -34053.48, 0.000, 0.000, 0.000, 19:58:34.407, 1575939514407
131, 66318.67, -18535.43, -38065.89, -39360.13, -38949.81, -34230.55, -14190.61, -34088.11, 0.000, 0.000, 0.000, 19:58:34.409, 1575939514409
132, 66399.32, -18614.09, -37744.20, -39212.94, -38952.85, -34235.85, -14187.86, -34031.76, 0.000, 0.000, 0.000, 19:58:34.410, 1575939514410
133, 66727.02, -18740.46, -37072.73, -37945.08, -39010.36, -34272.62, -14243.22, -33988.48, 0.000, 0.000, 0.000, 19:58:34.416, 1575939514416
134, 66699.68, -18674.68, -37304.93, -37904.45, -39013.05, -34268.84, -14252.63, -34034.40, 0.000, 0.000, 0.000, 19:58:34.417, 1575939514417
135, 66366.15, -18539.99, -38007.84, -39190.45, -38951.58, -34229.39, -14194.07, -34079.64, 0.118, 0.832, 0.552, 19:58:34.423, 1575939514423
136, 66362.95, -18580.67, -37866.36, -39376.39, -38936.54, -34220.52, -14172.91, -34031.80, 0.000, 0.000, 0.000, 19:58:34.424, 1575939514424
137, 66694.32, -18718.96, -37144.82, -38145.15, -38990.09, -34253.40, -14223.20, -33974.56, 0.000, 0.000, 0.000, 19:58:34.431, 1575939514431
138, 66753.05, -18695.85, -37183.49, -37755.94, -39016.85, -34271.14, -14260.50, -34021.03, 0.000, 0.000, 0.000, 19:58:34.432, 1575939514432
139, 66428.22, -18548.97, -37914.91, -38976.23, -38955.98, -34236.34, -14209.65, -34083.14, 0.000, 0.000, 0.000, 19:58:34.437, 1575939514437
140, 66323.79, -18563.06, -37963.72, -39483.95, -38933.07, -34225.59, -14180.95, -34056.14, 0.000, 0.000, 0.000, 19:58:34.444, 1575939514444
141, 66624.49, -18710.80, -37261.05, -38384.16, -38993.67, -34270.63, -14236.07, -34006.28, 0.000, 0.000, 0.000, 19:58:34.445, 1575939514445
142, 66764.81, -18724.14, -37105.04, -37682.29, -39033.99, -34293.41, -14280.71, -34029.37, 0.000, 0.000, 0.000, 19:58:34.452, 1575939514452
143, 66477.53, -18569.31, -37800.96, -38728.35, -38972.99, -34251.16, -14227.64, -34089.80, 0.000, 0.000, 0.000, 19:58:34.453, 1575939514453
144, 66302.89, -18535.27, -38042.98, -39541.73, -38925.79, -34221.35, -14177.96, -34070.36, 0.000, 0.000, 0.000, 19:58:34.460, 1575939514460
145, 66569.66, -18674.50, -37390.96, -38643.75, -38967.89, -34254.47, -14210.52, -34005.81, 0.114, 0.828, 0.554, 19:58:34.460, 1575939514460
146, 66786.61, -18729.46, -37037.93, -37666.73, -39017.16, -34281.65, -14258.76, -34003.55, 0.000, 0.000, 0.000, 19:58:34.467, 1575939514467
147, 66543.45, -18601.77, -37658.08, -38462.68, -38983.65, -34261.33, -14232.18, -34077.82, 0.000, 0.000, 0.000, 19:58:34.468, 1575939514468
148, 66288.92, -18533.13, -38084.93, -39516.07, -38933.09, -34229.10, -14181.62, -34082.92, 0.000, 0.000, 0.000, 19:58:34.475, 1575939514475
149, 66503.43, -18644.39, -37528.73, -38884.90, -38945.84, -34235.36, -14190.81, -34003.73, 0.000, 0.000, 0.000, 19:58:34.476, 1575939514476
150, 66782.27, -18739.41, -37018.02, -37726.88, -39010.21, -34274.68, -14250.09, -33989.61, 0.000, 0.000, 0.000, 19:58:34.483, 1575939514483
151, 66607.52, -18628.77, -37514.99, -38215.92, -38998.34, -34265.22, -14246.02, -34062.63, 0.000, 0.000, 0.000, 19:58:34.484, 1575939514484
152, 66301.28, -18526.13, -38085.61, -39433.13, -38940.40, -34225.93, -14185.87, -34083.79, 0.000, 0.000, 0.000, 19:58:34.489, 1575939514489
153, 66423.15, -18627.45, -37680.79, -39114.59, -38959.56, -34247.16, -14195.35, -34032.70, 0.000, 0.000, 0.000, 19:58:34.489, 1575939514489
154, 66744.61, -18744.08, -37056.71, -37861.75, -39022.21, -34287.82, -14256.10, -34002.52, 0.000, 0.000, 0.000, 19:58:34.497, 1575939514497
155, 66677.89, -18650.56, -37372.94, -37989.65, -39004.20, -34270.34, -14248.16, -34047.50, 0.000, 0.000, 0.000, 19:58:34.504, 1575939514504
156, 66345.20, -18527.18, -38044.16, -39274.25, -38940.16, -34226.89, -14184.66, -34085.76, 0.108, 0.830, 0.556, 19:58:34.505, 1575939514505
157, 66380.12, -18594.28, -37808.22, -39291.93, -38936.43, -34230.13, -14172.39, -34037.10, 0.000, 0.000, 0.000, 19:58:34.512, 1575939514512
158, 66713.00, -18725.26, -37107.16, -38037.50, -38996.35, -34270.68, -14229.63, -33991.62, 0.000, 0.000, 0.000, 19:58:34.513, 1575939514513
159, 66722.77, -18679.04, -37244.51, -37818.79, -39014.48, -34273.94, -14251.94, -34035.27, 0.000, 0.000, 0.000, 19:58:34.520, 1575939514520
160, 66386.87, -18530.09, -37970.16, -39086.58, -38952.14, -34229.93, -14198.32, -34090.01, 0.000, 0.000, 0.000, 19:58:34.521, 1575939514521
161, 66338.55, -18552.15, -37915.98, -39433.44, -38930.25, -34219.56, -14169.31, -34051.00, 0.000, 0.000, 0.000, 19:58:34.527, 1575939514527
162, 66664.03, -18697.05, -37190.93, -38250.81, -38986.11, -34261.42, -14217.03, -33994.19, 0.000, 0.000, 0.000, 19:58:34.528, 1575939514528
163, 66771.09, -18690.73, -37129.24, -37704.64, -39014.70, -34275.24, -14249.42, -34019.44, 0.000, 0.000, 0.000, 19:58:34.535, 1575939514535
164, 66449.79, -18556.69, -37855.00, -38846.41, -38973.04, -34243.12, -14208.15, -34086.68, 0.000, 0.000, 0.000, 19:58:34.536, 1575939514536
165, 66309.42, -18544.84, -38002.25, -39510.73, -38938.84, -34222.44, -14170.54, -34063.86, 0.000, 0.000, 0.000, 19:58:34.542, 1575939514542
166, 66602.09, -18685.77, -37310.22, -38495.47, -38983.14, -34257.73, -14212.09, -34002.43, 0.108, 0.836, 0.556, 19:58:34.543, 1575939514543
167, 66787.66, -18722.20, -37057.61, -37655.16, -39031.00, -34288.00, -14265.06, -34018.26, 0.000, 0.000, 0.000, 19:58:34.550, 1575939514550
168, 66514.70, -18576.13, -37732.09, -38600.54, -38983.77, -34259.52, -14227.71, -34088.38, 0.000, 0.000, 0.000, 19:58:34.551, 1575939514551
169, 66289.75, -18535.03, -38064.04, -39534.49, -38941.23, -34235.88, -14179.25, -34083.91, 0.000, 0.000, 0.000, 19:58:34.557, 1575939514557
170, 66524.89, -18663.75, -37452.85, -38757.39, -38968.07, -34254.16, -14201.72, -34012.80, 0.000, 0.000, 0.000, 19:58:34.558, 1575939514558
171, 66783.97, -18731.01, -37019.00, -37692.86, -39014.28, -34281.68, -14247.14, -33998.70, 0.000, 0.000, 0.000, 19:58:34.565, 1575939514565
172, 66564.72, -18620.03, -37588.97, -38351.08, -38998.00, -34276.06, -14238.75, -34080.73, 0.000, 0.000, 0.000, 19:58:34.571, 1575939514571
173, 66284.27, -18536.10, -38078.95, -39478.92, -38943.33, -34241.75, -14183.95, -34093.65, 0.000, 0.000, 0.000, 19:58:34.572, 1575939514572
174, 66458.98, -18635.36, -37582.54, -38980.59, -38954.98, -34248.95, -14188.91, -34022.59, 0.000, 0.000, 0.000, 19:58:34.579, 1575939514579
175, 66762.98, -18737.94, -37011.34, -37767.05, -39014.61, -34280.89, -14244.07, -33994.68, 0.000, 0.000, 0.000, 19:58:34.580, 1575939514580
176, 66638.73, -18637.93, -37433.96, -38093.94, -39001.51, -34267.68, -14237.10, -34057.48, 0.104, 0.842, 0.550, 19:58:34.587, 1575939514587
177, 66315.41, -18518.96, -38061.15, -39359.68, -38939.57, -34225.44, -14177.08, -34087.04, 0.000, 0.000, 0.000, 19:58:34.588, 1575939514588
178, 66396.66, -18606.82, -37731.89, -39197.61, -38951.31, -34239.21, -14181.31, -34035.69, 0.000, 0.000, 0.000, 19:58:34.594, 1575939514594
179, 66723.77, -18733.78, -37065.20, -37930.24, -39009.58, -34277.23, -14238.66, -33993.07, 0.000, 0.000, 0.000, 19:58:34.594, 1575939514594
180, 66690.52, -18667.10, -37302.11, -37903.89, -39005.34, -34268.22, -14241.23, -34037.08, 0.000, 0.000, 0.000, 19:58:34.602, 1575939514602
181, 66347.10, -18541.53, -38007.60, -39196.60, -38949.75, -34238.09, -14189.65, -34090.05, 0.000, 0.000, 0.000, 19:58:34.603, 1575939514603
182, 66339.51, -18594.13, -37861.82, -39371.12, -38944.02, -34239.12, -14175.83, -34048.28, 0.000, 0.000, 0.000, 19:58:34.618, 1575939514618
183, 66667.52, -18737.67, -37150.77, -38146.78, -39002.05, -34279.80, -14230.19, -33996.73, 0.000, 0.000, 0.000, 19:58:34.618, 1575939514618
184, 66730.73, -18702.26, -37193.79, -37777.24, -39016.80, -34282.32, -14247.94, -34027.80, 0.000, 0.000, 0.000, 19:58:34.620, 1575939514620
185, 66399.81, -18566.21, -37923.53, -38991.75, -38965.23, -34249.09, -14201.27, -34089.29, 0.000, 0.000, 0.000, 19:58:34.620, 1575939514620
186, 66302.60, -18573.47, -37973.55, -39496.38, -38939.17, -34234.47, -14174.45, -34060.77, 0.106, 0.834, 0.552, 19:58:34.624, 1575939514624
187, 66605.42, -18721.06, -37270.32, -38397.03, -38995.61, -34278.93, -14225.48, -34006.99, 0.000, 0.000, 0.000, 19:58:34.632, 1575939514632
188, 66736.38, -18748.73, -37117.37, -37700.06, -39044.47, -34310.84, -14276.37, -34034.15, 0.000, 0.000, 0.000, 19:58:34.633, 1575939514633
189, 66455.45, -18584.49, -37812.94, -38755.44, -38981.38, -34263.19, -14224.40, -34090.34, 0.000, 0.000, 0.000, 19:58:34.640, 1575939514640
190, 66283.05, -18554.36, -38038.82, -39548.59, -38939.02, -34238.18, -14178.54, -34075.93, 0.000, 0.000, 0.000, 19:58:34.641, 1575939514641
191, 66542.66, -18697.10, -37383.61, -38645.02, -38981.78, -34271.30, -14213.38, -34015.84, 0.000, 0.000, 0.000, 19:58:34.647, 1575939514647
192, 66770.60, -18741.42, -37039.81, -37690.65, -39022.84, -34294.50, -14257.08, -34014.35, 0.000, 0.000, 0.000, 19:58:34.648, 1575939514648
193, 66526.30, -18610.80, -37666.46, -38499.22, -38985.49, -34271.35, -14228.07, -34086.77, 0.000, 0.000, 0.000, 19:58:34.654, 1575939514654
194, 66274.73, -18551.37, -38088.58, -39539.00, -38935.04, -34241.26, -14177.60, -34092.85, 0.000, 0.000, 0.000, 19:58:34.654, 1575939514654
195, 66484.62, -18673.79, -37533.20, -38895.43, -38963.25, -34266.77, -14195.06, -34028.18, 0.000, 0.000, 0.000, 19:58:34.662, 1575939514662
196, 66762.73, -18756.31, -37033.91, -37749.21, -39022.21, -34299.73, -14248.14, -34011.62, 0.108, 0.838, 0.554, 19:58:34.662, 1575939514662
197, 66595.14, -18635.14, -37528.00, -38249.82, -38998.92, -34279.62, -14231.29, -34074.79, 0.000, 0.000, 0.000, 19:58:34.671, 1575939514671
198, 66289.37, -18539.30, -38091.55, -39458.32, -38941.68, -34241.75, -14176.59, -34097.41, 0.000, 0.000, 0.000, 19:58:34.672, 1575939514672
199, 66416.89, -18637.17, -37673.39, -39126.21, -38954.33, -34253.31, -14181.53, -34035.92, 0.000, 0.000, 0.000, 19:58:34.678, 1575939514678
200, 66740.02, -18750.30, -37044.53, -37871.54, -39014.59, -34294.59, -14240.12, -34003.68, 0.000, 0.000, 0.000, 19:58:34.678, 1575939514678
201, 66654.71, -18668.13, -37375.27, -38022.86, -39009.76, -34289.07, -14241.99, -34062.43, 0.000, 0.000, 0.000, 19:58:34.684, 1575939514684
202, 66319.16, -18544.73, -38047.63, -39308.60, -38950.35, -34251.79, -14185.76, -34104.71, 0.000, 0.000, 0.000, 19:58:34.692, 1575939514692
203, 66361.52, -18605.08, -37804.71, -39310.32, -38943.58, -34250.70, -14171.09, -34049.37, 0.000, 0.000, 0.000, 19:58:34.692, 1575939514692
204, 66696.91, -18743.12, -37106.11, -38047.79, -39009.71, -34296.74, -14230.93, -34007.38, 0.000, 0.000, 0.000, 19:58:34.699, 1575939514699
205, 66703.26, -18700.01, -37251.30, -37844.52, -39023.51, -34298.77, -14250.67, -34052.88, 0.000, 0.000, 0.000, 19:58:34.699, 1575939514699
206, 66350.16, -18574.43, -37983.70, -39116.80, -38974.55, -34273.34, -14207.24, -34116.38, 0.106, 0.832, 0.558, 19:58:34.707, 1575939514707
207, 66312.86, -18590.35, -37923.36, -39456.17, -38943.27, -34254.29, -14176.01, -34069.64, 0.000, 0.000, 0.000, 19:58:34.708, 1575939514708
208, 66653.95, -18723.45, -37195.40, -38273.09, -38992.55, -34287.84, -14223.06, -34010.39, 0.000, 0.000, 0.000, 19:58:34.716, 1575939514716
209, 66759.48, -18703.54, -37136.42, -37733.81, -39019.80, -34300.18, -14253.93, -34036.16, 0.000, 0.000, 0.000, 19:58:34.717, 1575939514717
210, 66424.91, -18569.09, -37856.95, -38872.12, -38969.01, -34265.31, -14204.53, -34099.91, 0.000, 0.000, 0.000, 19:58:34.722, 1575939514722
211, 66275.89, -18564.46, -37999.15, -39520.41, -38930.25, -34240.26, -14159.54, -34070.74, 0.000, 0.000, 0.000, 19:58:34.723, 1575939514723
212, 66561.93, -18710.73, -37308.91, -38496.77, -38976.73, -34273.63, -14195.95, -34005.94, 0.000, 0.000, 0.000, 19:58:34.729, 1575939514729
213, 66746.20, -18738.36, -37058.72, -37667.29, -39011.19, -34286.95, -14235.11, -34009.83, 0.000, 0.000, 0.000, 19:58:34.729, 1575939514729
214, 66471.36, -18594.95, -37726.48, -38614.89, -38965.82, -34254.36, -14200.76, -34077.71, 0.000, 0.000, 0.000, 19:58:34.737, 1575939514737
215, 66253.63, -18553.33, -38051.99, -39537.15, -38922.43, -34227.65, -14152.99, -34071.77, 0.000, 0.000, 0.000, 19:58:34.737, 1575939514737
216, 66497.58, -18683.62, -37431.44, -38746.43, -38953.64, -34250.63, -14175.19, -34000.87, 0.000, 0.000, 0.000, 19:58:34.745, 1575939514745
217, 66748.07, -18754.79, -37008.54, -37686.29, -39012.69, -34287.39, -14237.32, -33999.37, 0.108, 0.828, 0.556, 19:58:34.751, 1575939514751
218, 66540.36, -18622.51, -37581.04, -38357.40, -38982.98, -34261.58, -14215.02, -34067.90, 0.000, 0.000, 0.000, 19:58:34.751, 1575939514751
219, 66254.97, -18547.95, -38074.09, -39488.09, -38933.92, -34229.95, -14163.43, -34081.09, 0.000, 0.000, 0.000, 19:58:34.760, 1575939514760
220, 66419.70, -18661.72, -37588.86, -38990.38, -38962.22, -34258.27, -14184.10, -34026.73, 0.000, 0.000, 0.000, 19:58:34.760, 1575939514760
221, 66713.23, -18773.61, -37031.03, -37793.18, -39028.52, -34302.50, -14252.41, -34011.60, 0.000, 0.000, 0.000, 19:58:34.767, 1575939514767
222, 66593.94, -18659.66, -37446.55, -38125.39, -39002.70, -34279.02, -14241.06, -34066.65, 0.000, 0.000, 0.000, 19:58:34.768, 1575939514768
223, 66286.63, -18536.28, -38056.55, -39372.35, -38932.20, -34224.83, -14170.74, -34083.37, 0.000, 0.000, 0.000, 19:58:34.774, 1575939514774
224, 66368.49, -18628.41, -37716.20, -39186.54, -38946.75, -34240.70, -14173.49, -34030.35, 0.000, 0.000, 0.000, 19:58:34.775, 1575939514775
225, 66697.18, -18746.56, -37054.21, -37923.46, -39007.41, -34277.83, -14228.85, -33989.07, 0.000, 0.000, 0.000, 19:58:34.781, 1575939514781
226, 66660.70, -18676.04, -37294.31, -37905.70, -39003.84, -34270.23, -14232.76, -34035.67, 0.000, 0.000, 0.000, 19:58:34.782, 1575939514782
227, 66334.56, -18536.57, -37995.71, -39197.71, -38936.16, -34229.04, -14174.25, -34082.63, 0.106, 0.830, 0.550, 19:58:34.790, 1575939514790
228, 66327.59, -18588.98, -37841.05, -39359.39, -38931.02, -34232.34, -14162.78, -34043.96, 0.000, 0.000, 0.000, 19:58:34.790, 1575939514790
229, 66660.61, -18728.59, -37129.42, -38127.40, -38988.95, -34273.88, -14215.75, -33993.40, 0.000, 0.000, 0.000, 19:58:34.797, 1575939514797
230, 66713.52, -18702.80, -37182.66, -37761.91, -39011.46, -34285.99, -14245.64, -34033.88, 0.000, 0.000, 0.000, 19:58:34.797, 1575939514797
231, 66382.73, -18547.39, -37919.53, -38995.50, -38953.08, -34239.86, -14193.38, -34090.05, 0.000, 0.000, 0.000, 19:58:34.803, 1575939514803
232, 66289.48, -18565.83, -37950.36, -39482.63, -38930.37, -34229.17, -14160.37, -34056.48, 0.000, 0.000, 0.000, 19:58:34.803, 1575939514803
233, 66602.61, -18708.61, -37237.20, -38371.51, -38984.19, -34266.52, -14208.15, -33995.23, 0.000, 0.000, 0.000, 19:58:34.811, 1575939514811
234, 66744.30, -18720.30, -37082.23, -37681.39, -39020.38, -34283.20, -14248.95, -34015.02, 0.000, 0.000, 0.000, 19:58:34.819, 1575939514819
235, 66448.38, -18570.92, -37792.13, -38745.77, -38972.39, -34250.58, -14210.32, -34083.75, 0.000, 0.000, 0.000, 19:58:34.820, 1575939514820
236, 66258.41, -18560.96, -38029.41, -39543.34, -38940.92, -34236.10, -14172.32, -34075.59, 0.000, 0.000, 0.000, 19:58:34.826, 1575939514826
237, 66522.73, -18703.65, -37368.70, -38627.77, -38985.46, -34271.14, -14210.57, -34016.63, 0.100, 0.828, 0.556, 19:58:34.826, 1575939514826
238, 66751.49, -18744.98, -37020.72, -37662.35, -39025.16, -34287.75, -14253.89, -34010.59, 0.000, 0.000, 0.000, 19:58:34.834, 1575939514834
239, 66511.88, -18602.80, -37651.38, -38483.27, -38985.53, -34259.48, -14223.31, -34080.44, 0.000, 0.000, 0.000, 19:58:34.835, 1575939514835
240, 66269.59, -18536.08, -38056.66, -39517.17, -38928.04, -34223.45, -14163.88, -34079.19, 0.000, 0.000, 0.000, 19:58:34.843, 1575939514843
241, 66474.78, -18668.49, -37493.64, -38854.73, -38965.06, -34256.42, -14190.97, -34020.27, 0.000, 0.000, 0.000, 19:58:34.843, 1575939514843
242, 66754.89, -18746.94, -37000.27, -37713.34, -39022.16, -34289.16, -14248.59, -34006.59, 0.000, 0.000, 0.000, 19:58:34.849, 1575939514849
243, 66585.48, -18625.78, -37505.91, -38236.82, -38998.36, -34271.19, -14232.00, -34071.46, 0.000, 0.000, 0.000, 19:58:34.850, 1575939514850
244, 66279.98, -18540.53, -38065.42, -39439.09, -38949.23, -34245.35, -14181.15, -34098.43, 0.000, 0.000, 0.000, 19:58:34.856, 1575939514856
245, 66409.55, -18636.68, -37648.85, -39094.52, -38961.75, -34259.32, -14185.67, -34040.68, 0.000, 0.000, 0.000, 19:58:34.856, 1575939514856
246, 66728.20, -18742.94, -37026.60, -37850.13, -39015.91, -34293.12, -14240.72, -34003.30, 0.000, 0.000, 0.000, 19:58:34.864, 1575939514864
247, 66641.34, -18660.85, -37362.75, -38019.91, -39005.60, -34282.79, -14241.68, -34056.21, 0.098, 0.830, 0.552, 19:58:34.864, 1575939514864
248, 66301.77, -18547.10, -38033.93, -39306.99, -38954.82, -34253.69, -14193.47, -34103.78, 0.000, 0.000, 0.000, 19:58:34.871, 1575939514871
249, 66344.53, -18614.85, -37790.47, -39299.42, -38957.14, -34262.92, -14189.54, -34057.40, 0.000, 0.000, 0.000, 19:58:34.879, 1575939514879
250, 66681.27, -18748.24, -37092.16, -38041.91, -39014.45, -34300.67, -14243.58, -34010.39, 0.000, 0.000, 0.000, 19:58:34.880, 1575939514880
251, 66686.90, -18700.27, -37242.81, -37846.64, -39029.70, -34304.45, -14263.23, -34055.65, 0.000, 0.000, 0.000, 19:58:34.891, 1575939514891
252, 66355.20, -18548.68, -37972.75, -39122.26, -38964.16, -34256.75, -14205.45, -34104.00, 0.000, 0.000, 0.000, 19:58:34.892, 1575939514892
253, 66308.68, -18585.27, -37910.68, -39448.12, -38948.11, -34249.67, -14180.93, -34065.31, 0.000, 0.000, 0.000, 19:58:34.894, 1575939514894
254, 66626.37, -18731.45, -37189.43, -38257.25, -39005.80, -34290.41, -14234.46, -34012.47, 0.000, 0.000, 0.000, 19:58:34.894, 1575939514894
255, 66722.99, -18716.14, -37144.46, -37726.84, -39035.84, -34305.84, -14272.64, -34044.88, 0.000, 0.000, 0.000, 19:58:34.902, 1575939514902
0, 66408.44, -18573.83, -37872.82, -38887.39, -38981.64, -34269.02, -14226.44, -34110.66, 0.000, 0.000, 0.000, 19:58:34.902, 1575939514902
1, 66265.74, -18575.24, -38005.12, -39526.29, -38951.96, -34252.73, -14188.02, -34089.38, 0.100, 0.834, 0.552, 19:58:34.911, 1575939514911
2, 66555.18, -18715.47, -37314.31, -38506.29, -38995.39, -34286.01, -14225.99, -34026.15, 0.000, 0.000, 0.000, 19:58:34.912, 1575939514912
3, 66739.09, -18745.87, -37069.74, -37687.99, -39036.34, -34310.82, -14271.05, -34039.56, 0.000, 0.000, 0.000, 19:58:34.917, 1575939514917
4, 66474.38, -18588.67, -37734.71, -38637.22, -38982.63, -34271.19, -14225.79, -34100.38, 0.000, 0.000, 0.000, 19:58:34.918, 1575939514918
5, 66264.76, -18542.34, -38053.80, -39549.73, -38934.99, -34240.48, -14174.27, -34089.67, 0.000, 0.000, 0.000, 19:58:34.925, 1575939514925
6, 66507.05, -18678.97, -37440.36, -38754.93, -38972.37, -34271.97, -14204.85, -34024.18, 0.000, 0.000, 0.000, 19:58:34.925, 1575939514925
7, 66751.78, -18750.92, -37024.12, -37704.53, -39029.74, -34305.90, -14260.97, -34016.45, 0.000, 0.000, 0.000, 19:58:34.931, 1575939514931
8, 66532.38, -18626.18, -37598.72, -38386.01, -39000.46, -34288.60, -14240.88, -34086.77, 0.000, 0.000, 0.000, 19:58:34.938, 1575939514938
9, 66251.55, -18557.11, -38083.73, -39509.88, -38950.84, -34260.20, -14189.49, -34101.59, 0.000, 0.000, 0.000, 19:58:34.938, 1575939514938
10, 66424.63, -18674.48, -37588.41, -38997.09, -38976.88, -34282.95, -14209.34, -34041.64, 0.000, 0.000, 0.000, 19:58:34.947, 1575939514947
11, 66724.00, -18774.15, -37027.56, -37793.56, -39034.17, -34317.19, -14266.04, -34017.81, 0.100, 0.830, 0.552, 19:58:34.947, 1575939514947
12, 66596.41, -18664.53, -37456.47, -38141.26, -39016.89, -34298.84, -14254.38, -34078.34, 0.000, 0.000, 0.000, 19:58:34.954, 1575939514954
13, 66278.04, -18553.94, -38068.21, -39394.68, -38957.50, -34261.18, -14197.65, -34110.37, 0.000, 0.000, 0.000, 19:58:34.954, 1575939514954
14, 66373.15, -18638.27, -37724.07, -39204.87, -38966.09, -34271.30, -14198.32, -34057.62, 0.000, 0.000, 0.000, 19:58:34.961, 1575939514961
15, 66703.37, -18759.73, -37058.57, -37933.08, -39026.43, -34309.90, -14256.30, -34020.85, 0.000, 0.000, 0.000, 19:58:34.962, 1575939514962
16, 66653.88, -18693.26, -37315.48, -37930.55, -39033.36, -34313.04, -14273.13, -34080.06, 0.000, 0.000, 0.000, 19:58:34.969, 1575939514969
17, 66305.06, -18566.63, -38025.99, -39227.78, -38980.23, -34283.26, -14221.43, -34135.29, 0.000, 0.000, 0.000, 19:58:34.970, 1575939514970
18, 66313.04, -18608.10, -37855.36, -39370.43, -38961.08, -34271.66, -14195.97, -34079.41, 0.000, 0.000, 0.000, 19:58:34.979, 1575939514979
19, 66654.48, -18742.67, -37137.58, -38130.80, -39010.63, -34300.72, -14241.88, -34020.45, 0.000, 0.000, 0.000, 19:58:34.979, 1575939514979
20, 66707.98, -18711.70, -37195.78, -37780.17, -39024.65, -34304.74, -14262.13, -34054.56, 0.000, 0.000, 0.000, 19:58:34.984, 1575939514984
21, 66376.32, -18561.78, -37928.50, -39005.36, -38972.63, -34265.09, -14212.69, -34111.31, 0.000, 0.000, 0.000, 19:58:34.985, 1575939514985
22, 66284.23, -18576.87, -37954.07, -39476.58, -38951.63, -34254.18, -14184.51, -34079.23, 0.098, 0.832, 0.552, 19:58:34.991, 1575939514991
23, 66594.78, -18724.41, -37248.31, -38362.57, -39011.32, -34297.21, -14239.36, -34028.14, 0.000, 0.000, 0.000, 19:58:34.999, 1575939514999
24, 66736.30, -18724.55, -37106.96, -37691.32, -39041.57, -34313.52, -14274.40, -34044.93, 0.000, 0.000, 0.000, 19:58:34.999, 1575939514999
25, 66435.02, -18572.94, -37817.41, -38766.77, -38990.96, -34277.05, -14230.77, -34108.02, 0.000, 0.000, 0.000, 19:58:35.012, 1575939515012
26, 66265.95, -18545.00, -38035.87, -39547.07, -38947.71, -34247.81, -14180.30, -34082.50, 0.000, 0.000, 0.000, 19:58:35.013, 1575939515013
27, 66537.92, -18688.49, -37369.32, -38618.16, -38991.54, -34277.89, -14215.11, -34015.40, 0.000, 0.000, 0.000, 19:58:35.013, 1575939515013
28, 66757.20, -18735.28, -37038.79, -37675.56, -39034.30, -34298.44, -14262.40, -34013.90, 0.000, 0.000, 0.000, 19:58:35.013, 1575939515013
29, 66504.87, -18600.76, -37667.63, -38503.49, -38995.79, -34273.61, -14233.81, -34083.23, 0.000, 0.000, 0.000, 19:58:35.023, 1575939515023
30, 66262.66, -18535.63, -38077.96, -39534.65, -38941.48, -34242.25, -14178.74, -34085.20, 0.000, 0.000, 0.000, 19:58:35.024, 1575939515024
31, 66475.63, -18661.29, -37505.64, -38859.45, -38971.25, -34268.66, -14197.83, -34023.20, 0.000, 0.000, 0.000, 19:58:35.030, 1575939515030
32, 66753.17, -18743.66, -37011.18, -37718.97, -39029.59, -34306.39, -14258.40, -34012.78, 0.104, 0.828, 0.550, 19:58:35.031, 1575939515031
33, 66574.52, -18625.24, -37518.50, -38246.05, -39001.40, -34283.39, -14242.06, -34076.89, 0.000, 0.000, 0.000, 19:58:35.036, 1575939515036
34, 66265.97, -18542.36, -38076.93, -39448.97, -38952.52, -34255.90, -14190.70, -34108.20, 0.000, 0.000, 0.000, 19:58:35.037, 1575939515037
35, 66405.02, -18636.08, -37652.29, -39090.90, -38963.52, -34265.27, -14192.28, -34047.76, 0.000, 0.000, 0.000, 19:58:35.045, 1575939515045
36, 66735.73, -18744.42, -37024.99, -37833.50, -39021.38, -34304.09, -14250.78, -34014.14, 0.000, 0.000, 0.000, 19:58:35.045, 1575939515045
37, 66668.79, -18629.96, -37374.75, -38015.98, -39016.58, -34294.77, -14255.43, -34073.22, 0.000, 0.000, 0.000, 19:58:35.051, 1575939515051
38, 66327.26, -18515.11, -38038.96, -39303.46, -38945.84, -34243.96, -14187.48, -34100.29, 0.000, 0.000, 0.000, 19:58:35.052, 1575939515052
39, 66331.08, -18623.94, -37774.20, -39268.97, -38944.05, -34245.35, -14176.77, -34039.94, 0.000, 0.000, 0.000, 19:58:35.059, 1575939515059
40, 66653.44, -18762.68, -37081.01, -38004.58, -39010.01, -34286.08, -14240.63, -33998.05, 0.000, 0.000, 0.000, 19:58:35.065, 1575939515065
41, 66634.30, -18726.94, -37240.98, -37828.98, -39029.81, -34289.54, -14266.47, -34046.54, 0.000, 0.000, 0.000, 19:58:35.066, 1575939515066
42, 66275.36, -18598.82, -37969.46, -39107.28, -38973.64, -34247.68, -14213.99, -34097.05, 0.104, 0.834, 0.550, 19:58:35.073, 1575939515073
43, 66223.16, -18637.76, -37895.77, -39425.17, -38948.76, -34234.76, -14187.08, -34049.89, 0.000, 0.000, 0.000, 19:58:35.074, 1575939515074
44, 66533.85, -18800.52, -37174.05, -38233.91, -39002.83, -34273.23, -14237.59, -33993.58, 0.000, 0.000, 0.000, 19:58:35.083, 1575939515083
45, 66609.80, -18797.86, -37130.89, -37717.38, -39031.93, -34285.65, -14271.66, -34023.42, 0.000, 0.000, 0.000, 19:58:35.083, 1575939515083
46, 66276.92, -18659.50, -37858.78, -38880.16, -38977.73, -34250.49, -14224.22, -34088.15, 0.000, 0.000, 0.000, 19:58:35.088, 1575939515088
47, 66148.33, -18660.26, -37980.78, -39510.48, -38945.14, -34235.81, -14187.03, -34065.22, 0.000, 0.000, 0.000, 19:58:35.089, 1575939515089
48, 66437.14, -18811.05, -37291.63, -38476.49, -38995.84, -34274.54, -14234.37, -34010.59, 0.000, 0.000, 0.000, 19:58:35.096, 1575939515096
49, 66616.87, -18826.09, -37052.57, -37660.95, -39028.87, -34288.18, -14270.96, -34017.23, 0.000, 0.000, 0.000, 19:58:35.096, 1575939515096
50, 66333.67, -18689.90, -37733.90, -38623.14, -38987.95, -34266.70, -14238.96, -34094.86, 0.000, 0.000, 0.000, 19:58:35.104, 1575939515104
51, 66123.41, -18650.88, -38050.98, -39535.77, -38944.07, -34243.12, -14194.39, -34089.88, 0.000, 0.000, 0.000, 19:58:35.104, 1575939515104
52, 66371.80, -18781.23, -37429.76, -38727.77, -38983.32, -34271.06, -14224.00, -34025.34, 0.100, 0.836, 0.554, 19:58:35.112, 1575939515112
53, 66624.91, -18839.81, -37016.30, -37678.45, -39036.56, -34300.81, -14274.99, -34016.94, 0.000, 0.000, 0.000, 19:58:35.112, 1575939515112
54, 66420.91, -18702.17, -37596.84, -38373.27, -39001.47, -34272.24, -14247.83, -34077.63, 0.000, 0.000, 0.000, 19:58:35.118, 1575939515118
55, 66156.87, -18612.68, -38077.58, -39494.73, -38940.74, -34227.61, -14186.12, -34075.97, 0.000, 0.000, 0.000, 19:58:35.127, 1575939515127
56, 66339.82, -18718.20, -37574.11, -38968.75, -38961.10, -34240.46, -14199.15, -34007.38, 0.000, 0.000, 0.000, 19:58:35.128, 1575939515128
57, 66646.24, -18815.94, -37011.43, -37761.50, -39020.31, -34271.68, -14253.86, -33980.60, 0.000, 0.000, 0.000, 19:58:35.134, 1575939515134
58, 66510.66, -18713.95, -37451.44, -38122.60, -39009.58, -34261.07, -14251.54, -34046.62, 0.000, 0.000, 0.000, 19:58:35.135, 1575939515135
59, 66192.38, -18605.12, -38070.29, -39382.41, -38955.65, -34228.45, -14199.82, -34079.35, 0.000, 0.000, 0.000, 19:58:35.141, 1575939515141
60, 66288.30, -18691.40, -37727.20, -39183.32, -38964.63, -34238.51, -14202.39, -34025.48, 0.000, 0.000, 0.000, 19:58:35.141, 1575939515141
61, 66625.27, -18802.82, -37065.07, -37919.93, -39020.45, -34274.14, -14257.17, -33988.26, 0.000, 0.000, 0.000, 19:58:35.148, 1575939515148
62, 66579.95, -18729.51, -37318.56, -37922.06, -39023.21, -34271.32, -14266.65, -34043.74, 0.098, 0.834, 0.554, 19:58:35.148, 1575939515148
63, 66236.45, -18599.73, -38017.99, -39212.38, -38963.38, -34231.16, -14208.20, -34094.99, 0.000, 0.000, 0.000, 19:58:35.156, 1575939515156
64, 66246.70, -18646.05, -37846.62, -39348.16, -38951.69, -34228.32, -14189.83, -34051.96, 0.000, 0.000, 0.000, 19:58:35.156, 1575939515156
65, 66584.34, -18782.42, -37128.62, -38104.49, -39009.70, -34266.34, -14243.11, -34000.87, 0.000, 0.000, 0.000, 19:58:35.164, 1575939515164
66, 66631.69, -18750.14, -37194.96, -37758.78, -39032.71, -34278.90, -14276.66, -34044.25, 0.000, 0.000, 0.000, 19:58:35.165, 1575939515165
67, 66296.39, -18612.12, -37939.87, -39005.96, -38978.25, -34247.03, -14231.62, -34111.53, 0.000, 0.000, 0.000, 19:58:35.175, 1575939515175
68, 66208.57, -18638.92, -37959.54, -39470.70, -38956.12, -34240.91, -14203.33, -34082.12, 0.000, 0.000, 0.000, 19:58:35.175, 1575939515175
69, 66534.19, -18761.29, -37241.52, -38342.14, -38997.22, -34262.41, -14237.64, -34010.79, 0.000, 0.000, 0.000, 19:58:35.178, 1575939515178
70, 66672.70, -18764.06, -37099.89, -37670.33, -39028.11, -34273.61, -14271.90, -34025.39, 0.000, 0.000, 0.000, 19:58:35.186, 1575939515186
71, 66366.22, -18620.50, -37813.14, -38749.99, -38978.67, -34235.34, -14231.69, -34090.03, 0.000, 0.000, 0.000, 19:58:35.187, 1575939515187
72, 66197.86, -18594.84, -38029.84, -39523.87, -38935.60, -34207.04, -14185.82, -34065.29, 0.108, 0.834, 0.556, 19:58:35.195, 1575939515195
73, 66463.98, -18741.67, -37364.16, -38588.86, -38984.30, -34244.86, -14224.67, -34002.41, 0.000, 0.000, 0.000, 19:58:35.196, 1575939515196
74, 66679.05, -18787.96, -37042.45, -37653.50, -39031.96, -34273.09, -14272.37, -34004.80, 0.000, 0.000, 0.000, 19:58:35.201, 1575939515201
75, 66428.06, -18656.15, -37678.71, -38495.89, -38994.76, -34247.74, -14243.07, -34076.57, 0.000, 0.000, 0.000, 19:58:35.201, 1575939515201
76, 66181.13, -18591.38, -38078.52, -39521.66, -38943.09, -34214.84, -14190.72, -34078.68, 0.000, 0.000, 0.000, 19:58:35.212, 1575939515212
77, 66397.91, -18717.84, -37507.14, -38842.39, -38973.15, -34246.61, -14217.30, -34021.07, 0.000, 0.000, 0.000, 19:58:35.212, 1575939515212
78, 66679.59, -18795.51, -37024.37, -37714.57, -39028.69, -34281.52, -14273.18, -34010.32, 0.000, 0.000, 0.000, 19:58:35.217, 1575939515217
79, 66503.73, -18676.22, -37538.55, -38258.38, -39006.50, -34263.28, -14257.48, -34076.93, 0.000, 0.000, 0.000, 19:58:35.217, 1575939515217
80, 66209.24, -18582.10, -38085.23, -39449.73, -38949.01, -34225.28, -14200.71, -34095.73, 0.000, 0.000, 0.000, 19:58:35.224, 1575939515224
81, 66338.92, -18687.58, -37651.49, -39069.71, -38969.39, -34243.88, -14211.78, -34035.80, 0.000, 0.000, 0.000, 19:58:35.224, 1575939515224
82, 66657.59, -18792.72, -37038.45, -37825.92, -39024.54, -34275.93, -14263.18, -33999.46, 0.000, 0.000, 0.000, 19:58:35.231, 1575939515231
83, 66569.10, -18697.75, -37391.07, -38022.35, -39012.22, -34259.99, -14258.22, -34050.96, 0.108, 0.830, 0.546, 19:58:35.231, 1575939515231
84, 66233.23, -18586.19, -38050.63, -39299.35, -38956.65, -34229.39, -14204.96, -34092.69, 0.000, 0.000, 0.000, 19:58:35.238, 1575939515238
