%OpenBCI Raw EEG Data
%Number of channels = 8
%Sample Rate = 250.0 Hz
%First Column = SampleIndex
%Last Column = Timestamp 
%Other Columns = EEG data in microvolts followed by Accel Data (in G) interleaved with Aux Data
0, 28676.82, 19665.85, -78658.27, -77343.78, -58711.35, -46341.98, -67914.21, -64180.73, 0.060, 0.428, 0.248, 18:32:15.480, 1576539135480
1, 28821.97, 19864.06, -78666.45, -78054.45, -59099.42, -46827.60, -67762.64, -64011.91, 0.000, 0.000, 0.000, 18:32:15.484, 1576539135484
2, 28915.91, 19986.10, -78556.79, -78353.48, -59247.68, -47350.43, -67607.37, -63872.01, 0.000, 0.000, 0.000, 18:32:15.492, 1576539135492
3, 28760.86, 19788.80, -78545.66, -77695.20, -58884.77, -46937.77, -67751.33, -64035.42, 0.000, 0.000, 0.000, 18:32:15.492, 1576539135492
4, 28662.71, 19649.44, -78654.38, -77302.63, -58685.38, -46346.92, -67930.99, -64198.88, 0.000, 0.000, 0.000, 18:32:15.499, 1576539135499
5, 28805.72, 19827.61, -78677.96, -77921.55, -59024.38, -46682.80, -67813.52, -64068.21, 0.000, 0.000, 0.000, 18:32:15.500, 1576539135500
6, 28914.57, 19984.43, -78586.14, -78395.43, -59263.88, -47310.06, -67628.28, -63901.64, 0.000, 0.000, 0.000, 18:32:15.507, 1576539135507
7, 28778.63, 19807.45, -78548.48, -77860.58, -58967.83, -47070.36, -67726.48, -64027.31, 0.078, 0.642, 0.368, 18:32:15.508, 1576539135508
8, 28655.58, 19627.04, -78641.19, -77306.79, -58682.13, -46398.73, -67931.64, -64223.46, 0.000, 0.000, 0.000, 18:32:15.519, 1576539135519
9, 28795.17, 19796.16, -78666.54, -77774.14, -58938.29, -46558.17, -67850.84, -64116.51, 0.000, 0.000, 0.000, 18:32:15.519, 1576539135519
10, 28925.30, 20003.11, -78579.55, -78369.17, -59249.76, -47243.61, -67632.69, -63910.96, 0.000, 0.000, 0.000, 18:32:15.521, 1576539135521
11, 28835.16, 19899.27, -78522.13, -77997.39, -59031.31, -47189.47, -67670.59, -63979.21, 0.000, 0.000, 0.000, 18:32:15.522, 1576539135522
12, 28677.11, 19658.34, -78595.52, -77321.43, -58672.41, -46491.65, -67890.83, -64187.59, 0.000, 0.000, 0.000, 18:32:15.529, 1576539135529
13, 28756.93, 19742.69, -78652.79, -77612.74, -58844.12, -46451.59, -67867.94, -64138.26, 0.000, 0.000, 0.000, 18:32:15.530, 1576539135530
14, 28882.23, 19941.33, -78614.01, -78329.07, -59222.26, -47128.59, -67672.85, -63953.64, 0.000, 0.000, 0.000, 18:32:15.536, 1576539135536
15, 28865.33, 19911.45, -78520.05, -78156.76, -59112.41, -47265.45, -67639.93, -63948.11, 0.000, 0.000, 0.000, 18:32:15.536, 1576539135536
16, 28668.53, 19670.96, -78573.22, -77425.52, -58715.64, -46597.60, -67860.66, -64177.15, 0.000, 0.000, 0.000, 18:32:15.543, 1576539135543
17, 28699.15, 19683.79, -78656.08, -77514.38, -58787.12, -46375.11, -67914.99, -64197.49, 0.088, 0.746, 0.424, 18:32:15.553, 1576539135553
18, 28891.33, 19931.07, -78610.08, -78260.36, -59188.09, -47025.54, -67710.90, -63993.91, 0.000, 0.000, 0.000, 18:32:15.553, 1576539135553
19, 28898.79, 19962.86, -78512.87, -78258.51, -59176.27, -47336.86, -67611.66, -63922.41, 0.000, 0.000, 0.000, 18:32:15.559, 1576539135559
20, 28697.56, 19705.05, -78554.17, -77515.58, -58774.38, -46736.78, -67824.17, -64148.70, 0.000, 0.000, 0.000, 18:32:15.559, 1576539135559
21, 28658.98, 19641.13, -78671.90, -77421.95, -58743.64, -46340.26, -67962.87, -64266.00, 0.000, 0.000, 0.000, 18:32:15.566, 1576539135566
22, 28864.64, 19900.16, -78623.91, -78143.91, -59131.34, -46885.96, -67761.37, -64049.30, 0.000, 0.000, 0.000, 18:32:15.566, 1576539135566
23, 28919.38, 19987.98, -78522.05, -78347.02, -59221.14, -47346.94, -67618.43, -63933.74, 0.000, 0.000, 0.000, 18:32:15.577, 1576539135577
24, 28747.74, 19757.60, -78521.54, -77646.96, -58838.60, -46873.42, -67782.27, -64123.93, 0.000, 0.000, 0.000, 18:32:15.577, 1576539135577
25, 28675.48, 19660.13, -78607.39, -77324.88, -58678.58, -46337.55, -67929.92, -64249.89, 0.000, 0.000, 0.000, 18:32:15.582, 1576539135582
26, 28826.46, 19848.50, -78635.71, -77991.18, -59042.42, -46745.72, -67800.17, -64105.27, 0.000, 0.000, 0.000, 18:32:15.582, 1576539135582
27, 28918.11, 19974.75, -78547.13, -78408.27, -59257.78, -47336.32, -67635.08, -63964.86, 0.094, 0.818, 0.450, 18:32:15.589, 1576539135589
28, 28803.24, 19810.84, -78503.70, -77809.05, -58924.56, -47027.00, -67731.30, -64087.41, 0.000, 0.000, 0.000, 18:32:15.589, 1576539135589
29, 28684.73, 19648.43, -78588.44, -77303.39, -58662.42, -46381.81, -67909.34, -64256.77, 0.000, 0.000, 0.000, 18:32:15.596, 1576539135596
30, 28808.00, 19804.18, -78624.13, -77843.59, -58961.46, -46614.38, -67828.31, -64163.12, 0.000, 0.000, 0.000, 18:32:15.596, 1576539135596
31, 28972.87, 20009.59, -78523.30, -78392.37, -59250.38, -47278.52, -67610.91, -63947.69, 0.000, 0.000, 0.000, 18:32:15.618, 1576539135618
32, 28841.37, 19874.77, -78477.28, -77940.87, -58994.99, -47134.95, -67672.12, -64035.62, 0.000, 0.000, 0.000, 18:32:15.618, 1576539135618
33, 28670.58, 19665.51, -78561.35, -77309.79, -58669.35, -46444.40, -67892.21, -64250.00, 0.000, 0.000, 0.000, 18:32:15.619, 1576539135619
34, 28752.77, 19751.74, -78635.29, -77698.46, -58885.29, -46493.35, -67874.89, -64215.75, 0.000, 0.000, 0.000, 18:32:15.619, 1576539135619
35, 28929.08, 19979.08, -78560.59, -78375.95, -59248.08, -47191.04, -67660.09, -64005.65, 0.000, 0.000, 0.000, 18:32:15.619, 1576539135619
36, 28860.55, 19909.75, -78488.84, -78094.45, -59084.02, -47239.61, -67662.57, -64041.88, 0.000, 0.000, 0.000, 18:32:15.626, 1576539135626
37, 28686.21, 19675.08, -78553.37, -77372.93, -58696.08, -46544.04, -67867.80, -64250.73, 0.000, 0.000, 0.000, 18:32:15.626, 1576539135626
38, 28752.12, 19745.20, -78609.59, -77552.26, -58805.00, -46399.70, -67872.12, -64228.52, 0.090, 0.842, 0.460, 18:32:15.635, 1576539135635
39, 28921.32, 19979.04, -78547.98, -78275.41, -59191.57, -47065.89, -67659.40, -64023.30, 0.000, 0.000, 0.000, 18:32:15.636, 1576539135636
40, 28897.81, 19953.07, -78472.88, -78209.78, -59141.28, -47299.91, -67607.86, -64002.25, 0.000, 0.000, 0.000, 18:32:15.641, 1576539135641
41, 28706.99, 19700.02, -78520.85, -77461.82, -58739.85, -46663.98, -67820.53, -64221.12, 0.000, 0.000, 0.000, 18:32:15.641, 1576539135641
42, 28698.50, 19675.88, -78620.98, -77451.67, -58747.33, -46337.71, -67919.44, -64286.99, 0.000, 0.000, 0.000, 18:32:15.648, 1576539135648
43, 28899.26, 19926.60, -78560.32, -78187.56, -59137.44, -46935.91, -67703.32, -64068.84, 0.000, 0.000, 0.000, 18:32:15.648, 1576539135648
44, 28909.61, 19962.90, -78492.98, -78314.52, -59193.03, -47334.33, -67614.29, -64008.78, 0.000, 0.000, 0.000, 18:32:15.656, 1576539135656
45, 28726.28, 19738.56, -78511.82, -77595.80, -58802.59, -46806.83, -67794.72, -64202.55, 0.000, 0.000, 0.000, 18:32:15.656, 1576539135656
46, 28686.45, 19665.18, -78601.18, -77353.10, -58697.51, -46324.32, -67930.88, -64313.21, 0.000, 0.000, 0.000, 18:32:15.665, 1576539135665
47, 28865.47, 19881.14, -78604.22, -78051.40, -59082.39, -46794.70, -67787.27, -64153.39, 0.000, 0.000, 0.000, 18:32:15.665, 1576539135665
48, 28928.97, 20000.29, -78515.57, -78386.96, -59244.46, -47334.09, -67629.23, -64020.85, 0.092, 0.850, 0.468, 18:32:15.671, 1576539135671
49, 28745.73, 19785.12, -78525.01, -77758.27, -58889.45, -46949.50, -67775.13, -64197.14, 0.000, 0.000, 0.000, 18:32:15.679, 1576539135679
50, 28658.65, 19637.82, -78598.14, -77330.26, -58680.39, -46355.97, -67952.85, -64353.48, 0.000, 0.000, 0.000, 18:32:15.679, 1576539135679
51, 28810.03, 19824.30, -78611.89, -77913.40, -59008.74, -46674.26, -67826.73, -64205.76, 0.000, 0.000, 0.000, 18:32:15.686, 1576539135686
52, 28905.01, 19974.28, -78544.54, -78419.20, -59261.00, -47302.75, -67640.35, -64039.11, 0.000, 0.000, 0.000, 18:32:15.686, 1576539135686
53, 28788.08, 19820.88, -78510.30, -77911.52, -58973.87, -47089.13, -67724.24, -64149.88, 0.000, 0.000, 0.000, 18:32:15.693, 1576539135693
54, 28635.42, 19612.27, -78610.68, -77340.52, -58683.48, -46417.93, -67942.64, -64358.89, 0.000, 0.000, 0.000, 18:32:15.693, 1576539135693
55, 28754.15, 19754.20, -78654.34, -77791.63, -58944.14, -46555.87, -67878.45, -64268.41, 0.000, 0.000, 0.000, 18:32:15.701, 1576539135701
56, 28924.92, 19967.15, -78558.38, -78407.05, -59259.23, -47237.06, -67642.45, -64042.08, 0.000, 0.000, 0.000, 18:32:15.702, 1576539135702
57, 28848.55, 19877.67, -78490.38, -78050.23, -59051.90, -47198.75, -67660.94, -64082.88, 0.000, 0.000, 0.000, 18:32:15.712, 1576539135712
58, 28688.33, 19661.46, -78553.66, -77355.36, -58677.37, -46497.91, -67875.34, -64295.02, 0.098, 0.854, 0.476, 18:32:15.712, 1576539135712
59, 28741.26, 19727.27, -78645.99, -77638.16, -58842.24, -46434.25, -67894.78, -64290.03, 0.000, 0.000, 0.000, 18:32:15.717, 1576539135717
60, 28908.27, 19955.99, -78594.50, -78357.97, -59231.09, -47121.30, -67679.09, -64069.75, 0.000, 0.000, 0.000, 18:32:15.717, 1576539135717
61, 28848.14, 19888.58, -78526.98, -78188.66, -59131.71, -47278.50, -67660.31, -64081.36, 0.000, 0.000, 0.000, 18:32:15.723, 1576539135723
62, 28676.30, 19653.73, -78571.05, -77443.78, -58742.98, -46623.68, -67882.89, -64307.20, 0.000, 0.000, 0.000, 18:32:15.723, 1576539135723
63, 28715.04, 19684.91, -78627.98, -77484.31, -58777.33, -46370.17, -67920.96, -64320.09, 0.000, 0.000, 0.000, 18:32:15.734, 1576539135734
64, 28867.75, 19902.91, -78621.14, -78243.48, -59176.93, -46993.63, -67738.28, -64135.94, 0.000, 0.000, 0.000, 18:32:15.739, 1576539135739
65, 28876.78, 19924.01, -78548.84, -78309.91, -59195.38, -47326.60, -67661.23, -64090.14, 0.000, 0.000, 0.000, 18:32:15.739, 1576539135739
66, 28723.29, 19709.61, -78547.88, -77554.54, -58794.16, -46755.42, -67834.16, -64271.81, 0.000, 0.000, 0.000, 18:32:15.745, 1576539135745
67, 28664.90, 19642.11, -78645.86, -77394.45, -58724.54, -46334.25, -67948.90, -64362.89, 0.000, 0.000, 0.000, 18:32:15.745, 1576539135745
68, 28803.64, 19848.10, -78663.63, -78141.43, -59130.44, -46863.94, -67799.81, -64200.00, 0.104, 0.856, 0.488, 18:32:15.754, 1576539135754
69, 28882.32, 19945.64, -78565.95, -78395.45, -59255.34, -47352.30, -67657.12, -64076.88, 0.000, 0.000, 0.000, 18:32:15.754, 1576539135754
70, 28717.95, 19729.97, -78564.50, -77707.78, -58873.98, -46901.00, -67804.26, -64245.68, 0.000, 0.000, 0.000, 18:32:15.763, 1576539135763
71, 28605.76, 19584.02, -78673.66, -77367.12, -58705.71, -46344.89, -67976.88, -64402.62, 0.000, 0.000, 0.000, 18:32:15.763, 1576539135763
72, 28799.46, 19816.92, -78660.88, -78004.44, -59056.64, -46731.89, -67817.91, -64219.62, 0.000, 0.000, 0.000, 18:32:15.769, 1576539135769
73, 28922.51, 19975.91, -78543.13, -78415.08, -59256.20, -47323.60, -67627.80, -64049.84, 0.000, 0.000, 0.000, 18:32:15.769, 1576539135769
74, 28769.96, 19791.35, -78537.34, -77845.34, -58942.51, -47026.62, -67754.70, -64198.01, 0.000, 0.000, 0.000, 18:32:15.777, 1576539135777
75, 28653.35, 19624.18, -78622.62, -77333.63, -58689.00, -46381.48, -67950.91, -64379.08, 0.000, 0.000, 0.000, 18:32:15.777, 1576539135777
76, 28798.86, 19791.15, -78633.14, -77835.43, -58962.13, -46600.26, -67834.37, -64252.34, 0.000, 0.000, 0.000, 18:32:15.784, 1576539135784
77, 28918.19, 19966.46, -78568.16, -78416.78, -59257.24, -47269.04, -67630.32, -64068.23, 0.000, 0.000, 0.000, 18:32:15.784, 1576539135784
78, 28800.56, 19828.19, -78531.00, -78005.28, -59024.52, -47157.13, -67696.01, -64166.20, 0.108, 0.854, 0.490, 18:32:15.791, 1576539135791
79, 28631.64, 19618.42, -78608.34, -77355.72, -58687.63, -46466.28, -67920.96, -64376.06, 0.000, 0.000, 0.000, 18:32:15.798, 1576539135798
80, 28722.93, 19706.71, -78675.86, -77707.73, -58896.22, -46493.23, -67902.83, -64326.48, 0.000, 0.000, 0.000, 18:32:15.798, 1576539135798
81, 28920.38, 19950.70, -78583.75, -78392.28, -59255.39, -47196.02, -67678.98, -64110.97, 0.000, 0.000, 0.000, 18:32:15.805, 1576539135805
82, 28849.44, 19897.79, -78493.83, -78130.99, -59086.57, -47264.59, -67658.82, -64123.11, 0.000, 0.000, 0.000, 18:32:15.805, 1576539135805
83, 28650.91, 19635.69, -78573.95, -77403.91, -58702.59, -46570.82, -67894.09, -64346.96, 0.000, 0.000, 0.000, 18:32:15.813, 1576539135813
84, 28692.82, 19658.00, -78669.31, -77570.97, -58814.28, -46406.38, -67943.51, -64364.35, 0.000, 0.000, 0.000, 18:32:15.813, 1576539135813
85, 28891.30, 19919.29, -78607.15, -78316.24, -59216.59, -47079.97, -67721.45, -64141.37, 0.000, 0.000, 0.000, 18:32:15.821, 1576539135821
86, 28862.61, 19917.59, -78524.73, -78271.85, -59172.24, -47334.82, -67652.54, -64100.38, 0.000, 0.000, 0.000, 18:32:15.821, 1576539135821
87, 28673.85, 19671.81, -78572.95, -77530.42, -58767.52, -46715.73, -67856.81, -64311.27, 0.000, 0.000, 0.000, 18:32:15.828, 1576539135828
88, 28668.93, 19640.88, -78663.95, -77475.14, -58759.14, -46382.73, -67950.22, -64390.72, 0.106, 0.860, 0.488, 18:32:15.828, 1576539135828
89, 28848.26, 19870.10, -78633.30, -78224.38, -59164.28, -46973.95, -67764.72, -64196.98, 0.000, 0.000, 0.000, 18:32:15.836, 1576539135836
90, 28905.03, 19945.24, -78525.59, -78380.77, -59230.11, -47388.98, -67629.80, -64084.46, 0.000, 0.000, 0.000, 18:32:15.836, 1576539135836
91, 28734.31, 19718.13, -78537.01, -77650.43, -58831.69, -46872.28, -67797.13, -64264.01, 0.000, 0.000, 0.000, 18:32:15.844, 1576539135844
92, 28651.47, 19604.02, -78660.23, -77402.01, -58716.49, -46377.97, -67965.82, -64408.36, 0.000, 0.000, 0.000, 18:32:15.844, 1576539135844
93, 28807.73, 19822.09, -78653.48, -78105.20, -59100.45, -46846.68, -67815.84, -64245.13, 0.000, 0.000, 0.000, 18:32:15.850, 1576539135850
94, 28899.62, 19935.56, -78554.51, -78446.28, -59276.89, -47394.35, -67642.75, -64087.61, 0.000, 0.000, 0.000, 18:32:15.850, 1576539135850
95, 28762.29, 19756.46, -78528.65, -77814.45, -58931.29, -47025.52, -67769.80, -64232.56, 0.000, 0.000, 0.000, 18:32:15.863, 1576539135863
96, 28664.39, 19625.43, -78605.20, -77352.77, -58697.04, -46417.62, -67946.04, -64384.80, 0.000, 0.000, 0.000, 18:32:15.866, 1576539135866
97, 28795.42, 19794.59, -78642.91, -77937.53, -59013.39, -46713.20, -67845.73, -64263.72, 0.000, 0.000, 0.000, 18:32:15.866, 1576539135866
98, 28927.65, 19969.81, -78555.90, -78462.47, -59279.98, -47364.37, -67645.79, -64085.27, 0.000, 0.000, 0.000, 18:32:15.874, 1576539135874
99, 28795.51, 19793.77, -78525.72, -77965.59, -58999.73, -47160.82, -67738.84, -64199.48, 0.106, 0.864, 0.488, 18:32:15.874, 1576539135874
100, 28658.04, 19579.95, -78612.06, -77380.35, -58693.55, -46483.74, -67945.52, -64378.74, 0.000, 0.000, 0.000, 18:32:15.880, 1576539135880
101, 28761.42, 19700.25, -78685.09, -77814.00, -58942.60, -46600.17, -67893.11, -64300.18, 0.000, 0.000, 0.000, 18:32:15.880, 1576539135880
102, 28907.09, 19904.52, -78612.40, -78464.25, -59284.40, -47291.13, -67690.83, -64104.22, 0.000, 0.000, 0.000, 18:32:15.888, 1576539135888
103, 28824.18, 19818.46, -78530.66, -78136.29, -59086.50, -47281.43, -67696.86, -64140.12, 0.000, 0.000, 0.000, 18:32:15.888, 1576539135888
104, 28658.98, 19606.48, -78583.12, -77430.27, -58705.31, -46591.25, -67894.70, -64334.31, 0.000, 0.000, 0.000, 18:32:15.896, 1576539135896
105, 28706.95, 19648.21, -78681.63, -77676.00, -58860.19, -46513.26, -67921.09, -64326.73, 0.000, 0.000, 0.000, 18:32:15.896, 1576539135896
106, 28912.56, 19905.93, -78600.98, -78396.26, -59245.62, -47194.68, -67693.17, -64083.16, 0.000, 0.000, 0.000, 18:32:15.903, 1576539135903
107, 28874.21, 19880.33, -78524.38, -78263.11, -59149.40, -47363.43, -67643.82, -64057.37, 0.000, 0.000, 0.000, 18:32:15.903, 1576539135903
108, 28728.25, 19671.28, -78552.34, -77501.45, -58749.37, -46709.45, -67840.65, -64245.93, 0.000, 0.000, 0.000, 18:32:15.911, 1576539135911
109, 28730.02, 19653.13, -78644.68, -77524.54, -58786.89, -46437.13, -67914.68, -64295.19, 0.110, 0.858, 0.486, 18:32:15.911, 1576539135911
110, 28907.44, 19893.34, -78603.33, -78291.66, -59200.54, -47063.16, -67730.08, -64099.01, 0.000, 0.000, 0.000, 18:32:15.918, 1576539135918
111, 28941.02, 19950.81, -78486.74, -78343.63, -59203.87, -47412.68, -67606.16, -63992.44, 0.000, 0.000, 0.000, 18:32:15.925, 1576539135925
112, 28754.29, 19699.06, -78516.63, -77589.07, -58798.52, -46836.29, -67805.24, -64192.73, 0.000, 0.000, 0.000, 18:32:15.925, 1576539135925
113, 28717.30, 19618.21, -78636.38, -77428.43, -58734.14, -46401.15, -67950.17, -64311.00, 0.000, 0.000, 0.000, 18:32:15.933, 1576539135933
114, 28885.40, 19847.50, -78626.98, -78160.18, -59132.68, -46925.81, -67767.02, -64108.36, 0.000, 0.000, 0.000, 18:32:15.933, 1576539135933
115, 28927.16, 19946.29, -78534.91, -78438.33, -59270.99, -47429.26, -67621.76, -63981.35, 0.000, 0.000, 0.000, 18:32:15.940, 1576539135940
116, 28777.38, 19743.14, -78524.38, -77741.38, -58894.48, -46988.98, -67757.48, -64134.15, 0.000, 0.000, 0.000, 18:32:15.940, 1576539135940
117, 28676.13, 19578.52, -78647.31, -77384.80, -58716.40, -46416.79, -67954.27, -64311.29, 0.000, 0.000, 0.000, 18:32:15.949, 1576539135949
118, 28836.07, 19791.31, -78653.48, -78024.10, -59065.91, -46788.37, -67816.91, -64143.34, 0.000, 0.000, 0.000, 18:32:15.950, 1576539135950
119, 28961.74, 19969.58, -78534.08, -78454.71, -59271.59, -47391.22, -67604.55, -63947.42, 0.108, 0.864, 0.494, 18:32:15.955, 1576539135955
120, 28829.70, 19787.87, -78503.52, -77883.16, -58947.11, -47107.77, -67705.45, -64072.77, 0.000, 0.000, 0.000, 18:32:15.955, 1576539135955
121, 28688.11, 19597.74, -78606.19, -77349.26, -58680.46, -46449.88, -67918.59, -64265.78, 0.000, 0.000, 0.000, 18:32:15.963, 1576539135963
122, 28793.11, 19741.64, -78654.42, -77858.55, -58970.54, -46642.75, -67850.98, -64162.11, 0.000, 0.000, 0.000, 18:32:15.963, 1576539135963
123, 28958.20, 19958.01, -78560.32, -78450.64, -59277.25, -47319.34, -67632.89, -63952.43, 0.000, 0.000, 0.000, 18:32:15.971, 1576539135971
124, 28876.20, 19846.52, -78490.31, -78039.08, -59037.57, -47229.43, -67672.01, -64018.21, 0.000, 0.000, 0.000, 18:32:15.971, 1576539135971
125, 28702.79, 19623.24, -78567.50, -77381.20, -58684.39, -46538.12, -67891.84, -64226.71, 0.000, 0.000, 0.000, 18:32:15.977, 1576539135977
126, 28766.98, 19713.79, -78639.13, -77704.56, -58876.48, -46532.66, -67873.55, -64170.22, 0.000, 0.000, 0.000, 18:32:15.985, 1576539135985
127, 28934.73, 19930.27, -78563.27, -78390.05, -59237.06, -47216.47, -67653.01, -63954.80, 0.000, 0.000, 0.000, 18:32:15.985, 1576539135985
128, 28896.54, 19877.54, -78484.15, -78157.88, -59095.37, -47301.23, -67633.65, -63960.12, 0.000, 0.000, 0.000, 18:32:15.993, 1576539135993
129, 28740.07, 19658.63, -78536.34, -77415.09, -58703.26, -46622.94, -67845.95, -64169.22, 0.114, 0.862, 0.494, 18:32:15.994, 1576539135994
130, 28769.35, 19686.03, -78618.10, -77533.30, -58786.34, -46428.02, -67885.06, -64177.46, 0.000, 0.000, 0.000, 18:32:16.002, 1576539136002
131, 28936.25, 19916.68, -78576.41, -78290.36, -59190.48, -47079.86, -67690.40, -63972.59, 0.000, 0.000, 0.000, 18:32:16.002, 1576539136002
132, 28949.71, 19936.95, -78470.73, -78262.10, -59159.50, -47355.52, -67609.27, -63910.48, 0.000, 0.000, 0.000, 18:32:16.007, 1576539136007
133, 28752.08, 19676.82, -78524.63, -77514.55, -58759.87, -46735.42, -67822.03, -64125.34, 0.000, 0.000, 0.000, 18:32:16.007, 1576539136007
134, 28717.70, 19629.14, -78634.71, -77447.45, -58749.23, -46371.64, -67929.41, -64202.12, 0.000, 0.000, 0.000, 18:32:16.015, 1576539136015
135, 28903.67, 19872.11, -78607.22, -78189.73, -59150.34, -46945.03, -67737.25, -63995.50, 0.000, 0.000, 0.000, 18:32:16.015, 1576539136015
136, 28952.57, 19943.92, -78520.09, -78369.04, -59234.31, -47374.86, -67617.16, -63896.84, 0.000, 0.000, 0.000, 18:32:16.023, 1576539136023
137, 28770.25, 19708.43, -78530.28, -77659.39, -58846.31, -46869.84, -67794.13, -64080.77, 0.000, 0.000, 0.000, 18:32:16.023, 1576539136023
138, 28699.10, 19605.34, -78627.82, -77372.17, -58712.09, -46359.80, -67944.05, -64195.57, 0.000, 0.000, 0.000, 18:32:16.031, 1576539136031
139, 28859.16, 19821.95, -78643.88, -78052.63, -59080.04, -46799.84, -67789.46, -64025.95, 0.110, 0.862, 0.494, 18:32:16.031, 1576539136031
140, 28929.71, 19938.87, -78565.40, -78432.13, -59271.82, -47363.77, -67639.75, -63898.25, 0.000, 0.000, 0.000, 18:32:16.037, 1576539136037
141, 28794.28, 19752.50, -78525.68, -77814.96, -58934.57, -47014.57, -67755.69, -64027.53, 0.000, 0.000, 0.000, 18:32:16.045, 1576539136045
142, 28684.84, 19583.12, -78620.60, -77337.46, -58687.32, -46381.93, -67933.12, -64183.68, 0.000, 0.000, 0.000, 18:32:16.045, 1576539136045
143, 28814.33, 19756.68, -78659.12, -77914.27, -59002.97, -46655.33, -67846.57, -64074.04, 0.000, 0.000, 0.000, 18:32:16.053, 1576539136053
144, 28970.92, 19961.54, -78549.21, -78442.59, -59271.30, -47313.16, -67634.86, -63884.32, 0.000, 0.000, 0.000, 18:32:16.053, 1576539136053
145, 28850.83, 19810.62, -78499.30, -77945.67, -58992.73, -47129.70, -67702.23, -63989.73, 0.000, 0.000, 0.000, 18:32:16.060, 1576539136060
146, 28692.11, 19597.92, -78593.78, -77335.63, -58681.95, -46440.15, -67924.85, -64198.84, 0.000, 0.000, 0.000, 18:32:16.060, 1576539136060
147, 28811.04, 19733.44, -78640.72, -77738.31, -58912.87, -46525.07, -67874.63, -64116.63, 0.000, 0.000, 0.000, 18:32:16.068, 1576539136068
148, 28920.90, 19921.64, -78596.94, -78409.00, -59268.87, -47211.78, -67689.66, -63942.77, 0.000, 0.000, 0.000, 18:32:16.068, 1576539136068
149, 28844.66, 19834.71, -78531.06, -78108.37, -59090.19, -47221.41, -67689.28, -63981.04, 0.000, 0.000, 0.000, 18:32:16.076, 1576539136076
150, 28727.49, 19650.47, -78545.93, -77374.16, -58692.19, -46529.34, -67866.33, -64158.56, 0.112, 0.864, 0.492, 18:32:16.076, 1576539136076
151, 28768.21, 19687.77, -78631.38, -77590.59, -58816.42, -46417.55, -67894.54, -64166.34, 0.000, 0.000, 0.000, 18:32:16.082, 1576539136082
152, 28894.21, 19879.42, -78616.60, -78349.84, -59222.53, -47092.31, -67715.21, -63989.45, 0.000, 0.000, 0.000, 18:32:16.082, 1576539136082
153, 28884.00, 19859.50, -78531.42, -78237.61, -59151.41, -47287.24, -67667.45, -63970.69, 0.000, 0.000, 0.000, 18:32:16.090, 1576539136090
154, 28712.96, 19626.22, -78564.19, -77479.66, -58744.38, -46639.53, -67869.51, -64181.40, 0.000, 0.000, 0.000, 18:32:16.090, 1576539136090
155, 28698.83, 19607.87, -78667.66, -77504.00, -58778.13, -46351.17, -67957.93, -64242.42, 0.000, 0.000, 0.000, 18:32:16.097, 1576539136097
156, 28886.37, 19853.73, -78632.98, -78257.01, -59181.92, -46966.22, -67753.97, -64033.34, 0.000, 0.000, 0.000, 18:32:16.097, 1576539136097
157, 28906.93, 19901.30, -78538.08, -78344.31, -59208.52, -47327.27, -67647.75, -63961.14, 0.000, 0.000, 0.000, 18:32:16.105, 1576539136105
158, 28725.25, 19655.99, -78567.02, -77611.05, -58811.39, -46769.28, -67838.21, -64164.48, 0.000, 0.000, 0.000, 18:32:16.112, 1576539136112
159, 28681.94, 19596.24, -78657.41, -77417.48, -58722.86, -46315.88, -67956.30, -64252.73, 0.000, 0.000, 0.000, 18:32:16.112, 1576539136112
160, 28846.33, 19809.28, -78656.16, -78129.18, -59105.41, -46814.70, -67789.51, -64079.45, 0.112, 0.866, 0.492, 18:32:16.120, 1576539136120
161, 28916.81, 19906.64, -78566.85, -78423.91, -59247.48, -47327.89, -67642.81, -63959.89, 0.000, 0.000, 0.000, 18:32:16.120, 1576539136120
162, 28763.74, 19714.48, -78551.47, -77761.02, -58881.54, -46909.43, -67782.67, -64124.71, 0.000, 0.000, 0.000, 18:32:16.128, 1576539136128
163, 28681.49, 19586.30, -78635.89, -77363.85, -58684.88, -46336.19, -67948.30, -64271.57, 0.000, 0.000, 0.000, 18:32:16.128, 1576539136128
164, 28809.99, 19753.49, -78676.87, -77994.87, -59030.51, -46682.31, -67837.20, -64145.64, 0.000, 0.000, 0.000, 18:32:16.135, 1576539136135
165, 28907.51, 19897.54, -78598.97, -78462.42, -59274.07, -47301.88, -67663.02, -63989.58, 0.000, 0.000, 0.000, 18:32:16.135, 1576539136135
166, 28787.41, 19741.53, -78553.95, -77912.19, -58979.55, -47050.78, -67757.68, -64108.18, 0.000, 0.000, 0.000, 18:32:16.143, 1576539136143
167, 28660.26, 19569.46, -78638.55, -77363.09, -58698.88, -46396.57, -67960.39, -64298.14, 0.000, 0.000, 0.000, 18:32:16.143, 1576539136143
168, 28790.12, 19732.83, -78660.77, -77830.54, -58951.27, -46567.31, -67858.24, -64164.14, 0.000, 0.000, 0.000, 18:32:16.151, 1576539136151
169, 28934.73, 19932.82, -78572.34, -78430.97, -59249.98, -47241.77, -67632.58, -63959.49, 0.000, 0.000, 0.000, 18:32:16.151, 1576539136151
170, 28850.09, 19810.71, -78517.07, -78041.13, -59018.01, -47156.03, -67676.63, -64040.96, 0.112, 0.868, 0.494, 18:32:16.158, 1576539136158
171, 28700.82, 19606.03, -78579.23, -77367.86, -58664.68, -46461.03, -67892.13, -64251.47, 0.000, 0.000, 0.000, 18:32:16.158, 1576539136158
172, 28751.72, 19674.61, -78666.11, -77676.87, -58848.92, -46446.83, -67891.50, -64224.41, 0.000, 0.000, 0.000, 18:32:16.166, 1576539136166
173, 28898.41, 19887.49, -78605.14, -78407.34, -59234.67, -47142.67, -67699.23, -64043.04, 0.000, 0.000, 0.000, 18:32:16.172, 1576539136172
174, 28861.51, 19840.82, -78520.24, -78211.41, -59110.32, -47263.30, -67678.66, -64046.39, 0.000, 0.000, 0.000, 18:32:16.172, 1576539136172
175, 28697.65, 19612.52, -78555.60, -77450.87, -58709.80, -46583.74, -67886.23, -64254.54, 0.000, 0.000, 0.000, 18:32:16.180, 1576539136180
176, 28707.35, 19613.34, -78664.37, -77566.90, -58798.07, -46373.03, -67949.95, -64290.63, 0.000, 0.000, 0.000, 18:32:16.180, 1576539136180
177, 28896.24, 19862.68, -78611.84, -78318.14, -59199.31, -47025.07, -67727.15, -64066.27, 0.000, 0.000, 0.000, 18:32:16.187, 1576539136187
178, 28906.19, 19883.51, -78519.02, -78312.09, -59177.09, -47320.47, -67644.13, -64015.98, 0.000, 0.000, 0.000, 18:32:16.187, 1576539136187
179, 28729.05, 19645.08, -78548.97, -77556.82, -58775.09, -46720.55, -67848.96, -64226.95, 0.000, 0.000, 0.000, 18:32:16.195, 1576539136195
180, 28709.56, 19599.86, -78644.45, -77449.91, -58738.77, -46336.89, -67954.71, -64302.41, 0.112, 0.866, 0.492, 18:32:16.195, 1576539136195
181, 28866.52, 19819.13, -78648.92, -78196.30, -59143.14, -46897.82, -67787.90, -64133.72, 0.000, 0.000, 0.000, 18:32:16.203, 1576539136203
182, 28902.41, 19895.27, -78568.39, -78407.55, -59242.78, -47351.92, -67666.46, -64039.00, 0.000, 0.000, 0.000, 18:32:16.203, 1576539136203
183, 28736.54, 19673.65, -78558.63, -77702.66, -58855.58, -46863.80, -67825.90, -64214.48, 0.000, 0.000, 0.000, 18:32:16.210, 1576539136210
184, 28659.47, 19560.88, -78669.38, -77405.90, -58715.57, -46329.67, -67989.00, -64353.66, 0.000, 0.000, 0.000, 18:32:16.210, 1576539136210
185, 28871.66, 19818.87, -78637.50, -78049.70, -59076.39, -46758.93, -67813.20, -64156.97, 0.000, 0.000, 0.000, 18:32:16.217, 1576539136217
186, 28964.11, 19954.47, -78540.56, -78424.27, -59253.27, -47324.88, -67631.82, -63998.70, 0.000, 0.000, 0.000, 18:32:16.217, 1576539136217
187, 28807.17, 19755.10, -78525.41, -77815.05, -58909.45, -46980.08, -67751.69, -64146.35, 0.000, 0.000, 0.000, 18:32:16.225, 1576539136225
188, 28680.37, 19577.31, -78635.20, -77342.82, -58675.50, -46346.95, -67958.89, -64332.66, 0.000, 0.000, 0.000, 18:32:16.239, 1576539136239
189, 28801.99, 19728.99, -78666.58, -77898.06, -58989.20, -46607.03, -67877.80, -64233.68, 0.000, 0.000, 0.000, 18:32:16.239, 1576539136239
190, 28939.94, 19906.89, -78581.45, -78454.71, -59284.09, -47277.54, -67691.95, -64057.26, 0.108, 0.862, 0.494, 18:32:16.239, 1576539136239
191, 28826.40, 19774.70, -78525.05, -77989.68, -59013.70, -47120.70, -67741.19, -64136.77, 0.000, 0.000, 0.000, 18:32:16.240, 1576539136240
192, 28690.27, 19586.32, -78587.79, -77352.66, -58675.99, -46433.16, -67921.67, -64318.53, 0.000, 0.000, 0.000, 18:32:16.247, 1576539136247
193, 28761.29, 19681.29, -78664.80, -77742.85, -58900.82, -46496.75, -67900.04, -64270.76, 0.000, 0.000, 0.000, 18:32:16.248, 1576539136248
194, 28906.28, 19886.28, -78610.57, -78425.25, -59256.20, -47191.95, -67700.33, -64078.02, 0.000, 0.000, 0.000, 18:32:16.255, 1576539136255
195, 28848.63, 19818.69, -78526.75, -78138.09, -59083.08, -47224.56, -67697.93, -64105.34, 0.000, 0.000, 0.000, 18:32:16.255, 1576539136255
196, 28676.84, 19579.93, -78592.71, -77419.34, -58706.07, -46534.81, -67924.96, -64333.17, 0.000, 0.000, 0.000, 18:32:16.262, 1576539136262
197, 28738.40, 19643.65, -78669.64, -77617.15, -58832.72, -46410.69, -67945.59, -64315.62, 0.000, 0.000, 0.000, 18:32:16.262, 1576539136262
198, 28909.01, 19887.64, -78613.66, -78346.98, -59217.19, -47083.43, -67726.84, -64095.91, 0.000, 0.000, 0.000, 18:32:16.270, 1576539136270
199, 28873.85, 19856.17, -78542.55, -78271.23, -59151.88, -47294.70, -67684.92, -64086.50, 0.000, 0.000, 0.000, 18:32:16.270, 1576539136270
200, 28697.89, 19608.80, -78588.69, -77531.85, -58758.98, -46654.32, -67900.26, -64307.17, 0.000, 0.000, 0.000, 18:32:16.278, 1576539136278
201, 28705.29, 19602.19, -78670.54, -77528.27, -58775.88, -46357.16, -67970.53, -64350.71, 0.102, 0.864, 0.484, 18:32:16.278, 1576539136278
202, 28865.06, 19827.88, -78662.20, -78301.98, -59186.99, -46982.14, -67789.58, -64160.59, 0.000, 0.000, 0.000, 18:32:16.285, 1576539136285
203, 28912.94, 19900.90, -78548.27, -78416.09, -59229.37, -47393.09, -67660.52, -64052.48, 0.000, 0.000, 0.000, 18:32:16.293, 1576539136293
204, 28746.55, 19661.62, -78564.79, -77684.18, -58833.50, -46861.75, -67839.29, -64246.33, 0.000, 0.000, 0.000, 18:32:16.293, 1576539136293
205, 28682.61, 19573.31, -78674.92, -77473.73, -58739.13, -46407.67, -67984.62, -64372.35, 0.000, 0.000, 0.000, 18:32:16.299, 1576539136299
206, 28862.29, 19815.25, -78657.73, -78176.25, -59120.32, -46908.15, -67815.95, -64192.40, 0.000, 0.000, 0.000, 18:32:16.299, 1576539136299
207, 28938.22, 19932.90, -78557.08, -78481.09, -59264.84, -47434.45, -67658.08, -64053.08, 0.000, 0.000, 0.000, 18:32:16.307, 1576539136307
208, 28785.71, 19728.43, -78540.09, -77817.91, -58902.45, -47032.85, -67785.44, -64200.94, 0.000, 0.000, 0.000, 18:32:16.307, 1576539136307
209, 28700.29, 19594.63, -78630.41, -77414.64, -58690.18, -46444.18, -67948.66, -64349.82, 0.000, 0.000, 0.000, 18:32:16.315, 1576539136315
210, 28827.54, 19760.82, -78675.26, -78037.52, -59026.91, -46772.99, -67850.51, -64229.97, 0.000, 0.000, 0.000, 18:32:16.315, 1576539136315
211, 28931.25, 19920.86, -78594.61, -78529.84, -59283.78, -47411.94, -67671.91, -64064.32, 0.110, 0.858, 0.490, 18:32:16.322, 1576539136322
212, 28826.37, 19786.61, -78537.14, -77992.97, -58983.97, -47183.37, -67738.68, -64147.74, 0.000, 0.000, 0.000, 18:32:16.322, 1576539136322
213, 28702.21, 19605.79, -78595.64, -77412.07, -58675.88, -46507.32, -67936.45, -64332.39, 0.000, 0.000, 0.000, 18:32:16.331, 1576539136331
214, 28800.54, 19719.47, -78671.21, -77886.41, -58944.88, -46662.30, -67896.22, -64269.78, 0.000, 0.000, 0.000, 18:32:16.331, 1576539136331
215, 28940.19, 19908.68, -78609.14, -78524.83, -59278.79, -47349.71, -67693.87, -64085.11, 0.000, 0.000, 0.000, 18:32:16.337, 1576539136337
216, 28850.51, 19818.20, -78536.65, -78157.99, -59067.39, -47302.48, -67716.10, -64138.75, 0.000, 0.000, 0.000, 18:32:16.337, 1576539136337
217, 28697.96, 19605.03, -78593.31, -77462.29, -58698.45, -46609.62, -67913.96, -64331.71, 0.000, 0.000, 0.000, 18:32:16.344, 1576539136344
218, 28762.31, 19680.84, -78667.09, -77753.42, -58867.54, -46570.84, -67913.43, -64307.29, 0.000, 0.000, 0.000, 18:32:16.344, 1576539136344
219, 28910.08, 19889.25, -78625.43, -78478.47, -59249.87, -47254.16, -67716.55, -64116.82, 0.000, 0.000, 0.000, 18:32:16.352, 1576539136352
220, 28863.63, 19822.60, -78557.62, -78306.07, -59151.30, -47387.62, -67699.72, -64128.36, 0.000, 0.000, 0.000, 18:32:16.360, 1576539136360
221, 28711.64, 19609.88, -78588.55, -77550.41, -58751.47, -46716.46, -67899.21, -64324.05, 0.112, 0.864, 0.492, 18:32:16.360, 1576539136360
222, 28749.10, 19642.22, -78663.07, -77616.23, -58796.95, -46482.51, -67938.37, -64334.58, 0.000, 0.000, 0.000, 18:32:16.367, 1576539136367
223, 28926.60, 19893.63, -78621.01, -78366.06, -59191.44, -47122.19, -67728.94, -64124.40, 0.000, 0.000, 0.000, 18:32:16.367, 1576539136367
224, 28910.46, 19892.18, -78550.98, -78390.34, -59190.70, -47427.61, -67660.09, -64089.02, 0.000, 0.000, 0.000, 18:32:16.374, 1576539136374
225, 28710.12, 19633.97, -78596.13, -77650.70, -58803.01, -46833.14, -67883.20, -64319.85, 0.000, 0.000, 0.000, 18:32:16.374, 1576539136374
226, 28689.71, 19584.04, -78692.48, -77531.85, -58764.39, -46440.82, -67997.71, -64410.06, 0.000, 0.000, 0.000, 18:32:16.382, 1576539136382
227, 28876.98, 19821.77, -78667.45, -78260.30, -59155.99, -46992.21, -67817.00, -64224.88, 0.000, 0.000, 0.000, 18:32:16.382, 1576539136382
228, 28913.95, 19904.27, -78569.73, -78484.33, -59255.63, -47452.73, -67679.29, -64115.66, 0.000, 0.000, 0.000, 18:32:16.390, 1576539136390
229, 28790.86, 19728.19, -78520.94, -77760.40, -58853.13, -46961.06, -67792.05, -64237.01, 0.000, 0.000, 0.000, 18:32:16.390, 1576539136390
230, 28697.20, 19588.13, -78638.73, -77432.63, -58694.79, -46403.43, -67961.80, -64390.12, 0.000, 0.000, 0.000, 18:32:16.398, 1576539136398
231, 28830.04, 19785.70, -78667.81, -78095.02, -59061.06, -46802.96, -67842.84, -64254.91, 0.106, 0.864, 0.492, 18:32:16.398, 1576539136398
232, 28915.51, 19902.04, -78588.24, -78511.30, -59272.53, -47389.54, -67680.84, -64116.29, 0.000, 0.000, 0.000, 18:32:16.404, 1576539136404
233, 28795.71, 19730.13, -78544.32, -77919.61, -58945.82, -47075.10, -67787.02, -64242.69, 0.000, 0.000, 0.000, 18:32:16.404, 1576539136404
234, 28683.61, 19573.78, -78621.12, -77405.48, -58678.54, -46425.71, -67964.48, -64392.38, 0.000, 0.000, 0.000, 18:32:16.411, 1576539136411
235, 28800.29, 19725.95, -78667.48, -77938.09, -58980.44, -46654.73, -67881.11, -64287.28, 0.000, 0.000, 0.000, 18:32:16.419, 1576539136419
236, 28932.63, 19918.67, -78587.26, -78505.83, -59275.46, -47313.25, -67686.98, -64113.83, 0.000, 0.000, 0.000, 18:32:16.419, 1576539136419
237, 28841.80, 19789.96, -78528.09, -78053.20, -59022.73, -47166.52, -67741.90, -64197.38, 0.000, 0.000, 0.000, 18:32:16.427, 1576539136427
238, 28697.72, 19591.21, -78591.55, -77391.44, -58675.23, -46460.71, -67943.20, -64382.50, 0.000, 0.000, 0.000, 18:32:16.427, 1576539136427
239, 28763.45, 19684.42, -78662.24, -77757.29, -58887.32, -46498.02, -67913.67, -64327.47, 0.000, 0.000, 0.000, 18:32:16.448, 1576539136448
240, 28918.46, 19892.94, -78595.73, -78437.50, -59242.61, -47183.52, -67705.31, -64127.27, 0.000, 0.000, 0.000, 18:32:16.449, 1576539136449
241, 28865.49, 19828.59, -78518.30, -78174.89, -59088.87, -47229.73, -67709.35, -64156.14, 0.104, 0.864, 0.490, 18:32:16.449, 1576539136449
242, 28697.16, 19596.69, -78584.59, -77449.69, -58707.77, -46538.10, -67932.00, -64379.75, 0.000, 0.000, 0.000, 18:32:16.449, 1576539136449
243, 28734.78, 19635.58, -78680.75, -77627.43, -58825.99, -46391.43, -67967.23, -64383.62, 0.000, 0.000, 0.000, 18:32:16.450, 1576539136450
244, 28888.71, 19848.77, -78633.88, -78378.45, -59228.14, -47054.49, -67765.05, -64183.68, 0.000, 0.000, 0.000, 18:32:16.450, 1576539136450
245, 28891.73, 19856.91, -78533.09, -78300.15, -59174.61, -47282.59, -67691.45, -64139.87, 0.000, 0.000, 0.000, 18:32:16.457, 1576539136457
246, 28726.75, 19622.55, -78566.47, -77536.45, -58770.82, -46648.98, -67891.09, -64347.70, 0.000, 0.000, 0.000, 18:32:16.457, 1576539136457
247, 28702.23, 19596.53, -78664.75, -77508.20, -58770.42, -46323.30, -67982.27, -64412.29, 0.000, 0.000, 0.000, 18:32:16.470, 1576539136470
248, 28841.48, 19794.79, -78674.20, -78268.59, -59174.90, -46911.71, -67819.44, -64244.48, 0.000, 0.000, 0.000, 18:32:16.470, 1576539136470
249, 28869.96, 19842.89, -78589.98, -78415.57, -59233.26, -47315.56, -67720.98, -64168.55, 0.000, 0.000, 0.000, 18:32:16.473, 1576539136473
250, 28704.87, 19631.49, -78588.20, -77692.80, -58843.31, -46792.26, -67890.90, -64347.18, 0.000, 0.000, 0.000, 18:32:16.480, 1576539136480
251, 28653.24, 19540.86, -78678.63, -77445.57, -58726.46, -46308.72, -68019.51, -64451.90, 0.000, 0.000, 0.000, 18:32:16.480, 1576539136480
252, 28810.17, 19746.85, -78685.18, -78144.73, -59101.16, -46773.39, -67861.44, -64280.42, 0.110, 0.858, 0.500, 18:32:16.486, 1576539136486
253, 28902.46, 19879.48, -78577.04, -78476.80, -59266.09, -47311.11, -67695.77, -64142.17, 0.000, 0.000, 0.000, 18:32:16.486, 1576539136486
254, 28746.98, 19683.75, -78562.45, -77821.62, -58906.28, -46919.93, -67834.23, -64304.00, 0.000, 0.000, 0.000, 18:32:16.494, 1576539136494
255, 28651.34, 19528.09, -78665.82, -77397.88, -58699.70, -46320.88, -68024.63, -64478.16, 0.000, 0.000, 0.000, 18:32:16.494, 1576539136494
0, 28805.99, 19735.43, -78664.44, -77985.39, -59022.19, -46647.02, -67885.20, -64309.23, 0.000, 0.000, 0.000, 18:32:16.502, 1576539136502
1, 28910.37, 19884.96, -78588.24, -78487.08, -59277.63, -47283.59, -67699.03, -64137.99, 0.000, 0.000, 0.000, 18:32:16.502, 1576539136502
2, 28811.33, 19746.83, -78525.84, -77960.67, -58985.02, -47063.79, -67778.63, -64241.93, 0.000, 0.000, 0.000, 18:32:16.509, 1576539136509
3, 28657.17, 19532.50, -78630.23, -77377.13, -58688.44, -46388.52, -68005.90, -64460.08, 0.000, 0.000, 0.000, 18:32:16.509, 1576539136509
4, 28755.94, 19675.59, -78682.81, -77834.74, -58951.36, -46526.99, -67948.34, -64367.72, 0.000, 0.000, 0.000, 18:32:16.517, 1576539136517
5, 28913.97, 19898.08, -78599.03, -78459.78, -59273.96, -47215.64, -67717.49, -64150.20, 0.000, 0.000, 0.000, 18:32:16.518, 1576539136518
6, 28843.99, 19802.06, -78534.95, -78098.13, -59061.13, -47169.69, -67740.22, -64201.16, 0.112, 0.856, 0.504, 18:32:16.530, 1576539136530
7, 28690.18, 19589.31, -78603.13, -77408.91, -58698.85, -46471.44, -67957.70, -64413.39, 0.000, 0.000, 0.000, 18:32:16.531, 1576539136531
8, 28770.79, 19670.83, -78666.65, -77673.63, -58862.91, -46417.48, -67951.11, -64379.48, 0.000, 0.000, 0.000, 18:32:16.532, 1576539136532
9, 28926.04, 19887.33, -78616.24, -78395.88, -59243.77, -47100.82, -67743.40, -64178.67, 0.000, 0.000, 0.000, 18:32:16.539, 1576539136539
10, 28897.74, 19862.45, -78531.78, -78237.63, -59141.46, -47255.63, -67708.10, -64165.73, 0.000, 0.000, 0.000, 18:32:16.539, 1576539136539
11, 28689.38, 19586.36, -78604.38, -77497.43, -58743.85, -46589.64, -67939.45, -64401.03, 0.000, 0.000, 0.000, 18:32:16.547, 1576539136547
12, 28702.03, 19590.86, -78702.50, -77574.61, -58804.69, -46350.72, -68006.63, -64429.57, 0.000, 0.000, 0.000, 18:32:16.547, 1576539136547
13, 28884.78, 19839.05, -78663.61, -78321.20, -59205.68, -46991.68, -67794.49, -64213.81, 0.000, 0.000, 0.000, 18:32:16.555, 1576539136555
14, 28914.33, 19892.69, -78548.95, -78357.48, -59203.15, -47325.61, -67681.73, -64136.23, 0.000, 0.000, 0.000, 18:32:16.555, 1576539136555
15, 28724.38, 19636.86, -78581.38, -77613.50, -58795.86, -46739.38, -67880.79, -64353.42, 0.000, 0.000, 0.000, 18:32:16.562, 1576539136562
16, 28683.39, 19575.46, -78681.67, -77474.79, -58744.72, -46319.88, -68004.17, -64446.54, 0.112, 0.860, 0.498, 18:32:16.562, 1576539136562
17, 28860.30, 19812.05, -78665.89, -78202.42, -59138.04, -46852.32, -67832.06, -64261.96, 0.000, 0.000, 0.000, 18:32:16.569, 1576539136569
18, 28936.63, 19920.16, -78565.40, -78445.21, -59252.28, -47339.03, -67691.72, -64148.61, 0.000, 0.000, 0.000, 18:32:16.569, 1576539136569
19, 28766.40, 19690.19, -78572.73, -77759.84, -58882.45, -46883.00, -67853.99, -64325.90, 0.000, 0.000, 0.000, 18:32:16.577, 1576539136577
20, 28694.59, 19569.22, -78640.32, -77400.89, -58702.86, -46327.70, -67988.23, -64432.52, 0.000, 0.000, 0.000, 18:32:16.577, 1576539136577
21, 28826.51, 19745.69, -78662.54, -78053.12, -59050.67, -46715.97, -67860.88, -64288.06, 0.000, 0.000, 0.000, 18:32:16.584, 1576539136584
22, 28926.35, 19894.39, -78571.05, -78491.57, -59277.07, -47323.94, -67700.88, -64151.76, 0.000, 0.000, 0.000, 18:32:16.584, 1576539136584
23, 28792.42, 19721.81, -78531.45, -77905.95, -58955.90, -47030.66, -67798.23, -64275.46, 0.000, 0.000, 0.000, 18:32:16.591, 1576539136591
24, 28679.48, 19560.12, -78609.41, -77376.71, -58686.02, -46382.59, -67979.86, -64439.23, 0.000, 0.000, 0.000, 18:32:16.591, 1576539136591
25, 28793.54, 19699.29, -78667.61, -77909.15, -58987.39, -46599.27, -67911.08, -64342.00, 0.000, 0.000, 0.000, 18:32:16.599, 1576539136599
26, 28967.79, 19916.34, -78558.51, -78479.38, -59277.11, -47271.46, -67679.05, -64126.66, 0.110, 0.858, 0.492, 18:32:16.607, 1576539136607
27, 28849.46, 19784.36, -78510.25, -78043.04, -59025.48, -47151.50, -67732.84, -64214.50, 0.000, 0.000, 0.000, 18:32:16.608, 1576539136608
28, 28679.95, 19552.50, -78598.95, -77397.18, -58688.77, -46456.91, -67964.52, -64430.84, 0.000, 0.000, 0.000, 18:32:16.617, 1576539136617
29, 28762.29, 19651.09, -78677.65, -77761.52, -58903.59, -46484.50, -67951.71, -64386.81, 0.000, 0.000, 0.000, 18:32:16.617, 1576539136617
30, 28961.18, 19902.87, -78586.45, -78431.71, -59255.50, -47176.46, -67714.36, -64149.08, 0.000, 0.000, 0.000, 18:32:16.624, 1576539136624
31, 28874.27, 19816.41, -78537.03, -78182.42, -59099.15, -47239.85, -67716.93, -64182.63, 0.000, 0.000, 0.000, 18:32:16.624, 1576539136624
32, 28685.40, 19575.72, -78605.43, -77469.22, -58724.42, -46562.26, -67939.20, -64407.91, 0.000, 0.000, 0.000, 18:32:16.630, 1576539136630
33, 28729.05, 19626.26, -78680.13, -77631.16, -58828.85, -46409.82, -67966.49, -64414.46, 0.000, 0.000, 0.000, 18:32:16.630, 1576539136630
34, 28913.46, 19867.77, -78623.51, -78363.89, -59218.15, -47069.62, -67743.28, -64187.57, 0.000, 0.000, 0.000, 18:32:16.637, 1576539136637
35, 28915.42, 19870.54, -78521.48, -78296.46, -59162.88, -47312.52, -67668.49, -64140.14, 0.000, 0.000, 0.000, 18:32:16.637, 1576539136637
36, 28724.18, 19618.48, -78560.50, -77548.39, -58762.09, -46689.21, -67887.88, -64370.74, 0.110, 0.866, 0.490, 18:32:16.645, 1576539136645
37, 28708.98, 19589.58, -78655.12, -77511.53, -58762.82, -46344.64, -67993.38, -64439.85, 0.000, 0.000, 0.000, 18:32:16.645, 1576539136645
38, 28881.56, 19822.78, -78636.66, -78262.06, -59166.56, -46925.68, -67803.77, -64235.20, 0.000, 0.000, 0.000, 18:32:16.652, 1576539136652
39, 28925.55, 19894.79, -78543.20, -78410.66, -59226.44, -47342.36, -67688.68, -64146.40, 0.000, 0.000, 0.000, 18:32:16.652, 1576539136652
40, 28745.42, 19655.74, -78562.18, -77688.80, -58837.77, -46824.38, -67873.41, -64341.77, 0.000, 0.000, 0.000, 18:32:16.658, 1576539136658
41, 28667.63, 19544.90, -78663.19, -77437.84, -58725.52, -46323.68, -68019.20, -64461.22, 0.000, 0.000, 0.000, 18:32:16.666, 1576539136666
42, 28840.99, 19768.20, -78665.69, -78123.16, -59099.55, -46777.77, -67853.84, -64283.70, 0.000, 0.000, 0.000, 18:32:16.666, 1576539136666
43, 28949.38, 19900.25, -78558.00, -78452.92, -59263.64, -47332.07, -67681.08, -64136.14, 0.000, 0.000, 0.000, 18:32:16.674, 1576539136674
44, 28793.70, 19700.56, -78535.82, -77801.75, -58912.58, -46959.56, -67815.62, -64297.36, 0.000, 0.000, 0.000, 18:32:16.674, 1576539136674
45, 28670.43, 19539.56, -78641.57, -77358.36, -58704.35, -46351.26, -68014.84, -64464.66, 0.000, 0.000, 0.000, 18:32:16.681, 1576539136681
46, 28817.43, 19724.92, -78669.73, -77935.01, -59032.65, -46653.43, -67911.51, -64338.58, 0.000, 0.000, 0.000, 18:32:16.681, 1576539136681
47, 28942.20, 19893.41, -78585.80, -78434.98, -59289.99, -47300.43, -67717.05, -64163.70, 0.108, 0.862, 0.490, 18:32:16.689, 1576539136689
48, 28831.47, 19753.60, -78535.96, -77924.52, -58999.59, -47096.44, -67770.09, -64239.45, 0.000, 0.000, 0.000, 18:32:16.689, 1576539136689
49, 28709.47, 19573.85, -78609.23, -77316.88, -58681.69, -46410.80, -67968.16, -64418.78, 0.000, 0.000, 0.000, 18:32:16.697, 1576539136697
50, 28801.81, 19692.20, -78666.42, -77741.31, -58926.77, -46521.89, -67928.20, -64351.14, 0.000, 0.000, 0.000, 18:32:16.697, 1576539136697
51, 28934.24, 19884.31, -78611.80, -78387.86, -59270.97, -47212.85, -67732.47, -64163.92, 0.000, 0.000, 0.000, 18:32:16.704, 1576539136704
52, 28852.46, 19793.01, -78553.51, -78055.10, -59082.25, -47199.15, -67757.68, -64218.44, 0.000, 0.000, 0.000, 18:32:16.704, 1576539136704
53, 28685.98, 19559.63, -78615.24, -77353.22, -58718.79, -46503.94, -67984.13, -64445.96, 0.000, 0.000, 0.000, 18:32:16.712, 1576539136712
54, 28742.67, 19616.96, -78704.65, -77604.56, -58877.78, -46430.47, -68003.41, -64441.44, 0.000, 0.000, 0.000, 18:32:16.712, 1576539136712
55, 28917.14, 19862.16, -78633.28, -78319.39, -59251.97, -47110.93, -67770.76, -64207.57, 0.000, 0.000, 0.000, 18:32:16.718, 1576539136718
56, 28890.10, 19841.93, -78538.20, -78168.38, -59145.33, -47276.73, -67707.84, -64177.38, 0.000, 0.000, 0.000, 18:32:16.726, 1576539136726
57, 28704.71, 19586.99, -78587.59, -77424.59, -58743.42, -46621.91, -67929.88, -64406.64, 0.110, 0.868, 0.496, 18:32:16.726, 1576539136726
58, 28690.68, 19567.07, -78696.49, -77489.78, -58799.26, -46366.73, -68022.97, -64469.83, 0.000, 0.000, 0.000, 18:32:16.734, 1576539136734
59, 28890.48, 19827.70, -78648.23, -78237.41, -59199.96, -47000.26, -67803.05, -64244.52, 0.000, 0.000, 0.000, 18:32:16.734, 1576539136734
60, 28920.72, 19877.21, -78551.47, -78286.18, -59210.68, -47352.93, -67693.04, -64168.77, 0.000, 0.000, 0.000, 18:32:16.741, 1576539136741
61, 28755.18, 19650.98, -78559.02, -77545.40, -58812.00, -46783.70, -67880.16, -64363.70, 0.000, 0.000, 0.000, 18:32:16.741, 1576539136741
62, 28692.15, 19548.61, -78669.66, -77389.56, -58742.86, -46346.03, -68019.87, -64476.49, 0.000, 0.000, 0.000, 18:32:16.749, 1576539136749
63, 28852.79, 19761.24, -78675.81, -78115.77, -59139.54, -46860.27, -67857.34, -64296.47, 0.000, 0.000, 0.000, 18:32:16.749, 1576539136749
64, 28922.11, 19869.34, -78568.55, -78378.27, -59260.15, -47358.41, -67706.18, -64169.60, 0.000, 0.000, 0.000, 18:32:16.757, 1576539136757
65, 28782.47, 19677.18, -78544.45, -77689.03, -58881.91, -46924.07, -67837.01, -64322.91, 0.000, 0.000, 0.000, 18:32:16.757, 1576539136757
66, 28703.04, 19551.34, -78646.02, -77328.74, -58702.36, -46358.99, -68005.27, -64479.57, 0.000, 0.000, 0.000, 18:32:16.764, 1576539136764
67, 28827.58, 19735.81, -78685.45, -77968.94, -59060.75, -46729.14, -67891.27, -64343.76, 0.108, 0.866, 0.492, 18:32:16.765, 1576539136765
68, 28934.51, 19885.25, -78595.68, -78405.98, -59288.45, -47331.40, -67711.27, -64179.37, 0.000, 0.000, 0.000, 18:32:16.771, 1576539136771
69, 28814.42, 19725.91, -78560.61, -77839.70, -58973.80, -47056.81, -67806.05, -64297.59, 0.000, 0.000, 0.000, 18:32:16.771, 1576539136771
70, 28689.04, 19550.18, -78640.99, -77310.37, -58701.22, -46402.55, -67997.80, -64479.06, 0.000, 0.000, 0.000, 18:32:16.778, 1576539136778
71, 28796.67, 19691.82, -78688.46, -77814.45, -58976.37, -46595.38, -67918.59, -64382.39, 0.000, 0.000, 0.000, 18:32:16.786, 1576539136786
72, 28924.12, 19878.34, -78621.68, -78410.43, -59281.65, -47271.77, -67724.73, -64207.62, 0.000, 0.000, 0.000, 18:32:16.786, 1576539136786
73, 28843.65, 19765.96, -78563.45, -77996.55, -59050.07, -47172.50, -67772.07, -64278.41, 0.000, 0.000, 0.000, 18:32:16.793, 1576539136793
74, 28687.99, 19546.80, -78635.73, -77336.09, -58708.87, -46476.63, -67984.52, -64479.28, 0.000, 0.000, 0.000, 18:32:16.793, 1576539136793
75, 28768.44, 19648.48, -78691.37, -77661.63, -58900.06, -46484.05, -67954.60, -64429.26, 0.000, 0.000, 0.000, 18:32:16.801, 1576539136801
76, 28941.22, 19884.85, -78606.37, -78344.65, -59247.01, -47173.60, -67725.88, -64212.69, 0.000, 0.000, 0.000, 18:32:16.801, 1576539136801
77, 28859.43, 19798.82, -78556.95, -78125.87, -59117.05, -47260.10, -67737.88, -64255.09, 0.102, 0.866, 0.494, 18:32:16.809, 1576539136809
78, 28700.89, 19571.72, -78599.62, -77397.16, -58729.95, -46577.28, -67951.13, -64459.95, 0.000, 0.000, 0.000, 18:32:16.809, 1576539136809
79, 28739.85, 19609.45, -78680.06, -77540.41, -58820.11, -46401.53, -67992.30, -64469.74, 0.000, 0.000, 0.000, 18:32:16.818, 1576539136818
80, 28910.21, 19837.96, -78644.90, -78285.10, -59218.17, -47065.91, -67788.52, -64270.74, 0.000, 0.000, 0.000, 18:32:16.818, 1576539136818
81, 28885.87, 19822.73, -78576.98, -78263.87, -59196.63, -47332.30, -67737.20, -64252.61, 0.000, 0.000, 0.000, 18:32:16.824, 1576539136824
82, 28703.77, 19583.48, -78612.45, -77535.43, -58804.49, -46725.34, -67946.44, -64467.91, 0.000, 0.000, 0.000, 18:32:16.824, 1576539136824
83, 28673.96, 19534.78, -78708.34, -77463.61, -58787.68, -46365.94, -68048.48, -64537.55, 0.000, 0.000, 0.000, 18:32:16.832, 1576539136832
84, 28895.02, 19800.13, -78647.43, -78174.09, -59162.29, -46935.53, -67816.53, -64301.90, 0.000, 0.000, 0.000, 18:32:16.832, 1576539136832
85, 28938.09, 19875.08, -78549.10, -78329.92, -59231.52, -47366.34, -67682.22, -64194.86, 0.000, 0.000, 0.000, 18:32:16.839, 1576539136839
86, 28749.66, 19643.18, -78569.17, -77625.70, -58854.80, -46857.37, -67872.27, -64401.63, 0.000, 0.000, 0.000, 18:32:16.839, 1576539136839
87, 28689.60, 19553.66, -78665.33, -77349.02, -58730.05, -46349.40, -68023.11, -64524.21, 0.104, 0.864, 0.498, 18:32:16.846, 1576539136846
88, 28866.36, 19777.74, -78661.53, -78012.16, -59090.16, -46793.51, -67859.58, -64344.68, 0.000, 0.000, 0.000, 18:32:16.853, 1576539136853
89, 28957.00, 19900.29, -78566.63, -78372.63, -59262.61, -47348.68, -67696.10, -64207.93, 0.000, 0.000, 0.000, 18:32:16.853, 1576539136853
90, 28822.13, 19719.49, -78539.45, -77758.85, -58917.88, -46995.84, -67817.70, -64349.02, 0.000, 0.000, 0.000, 18:32:16.861, 1576539136861
91, 28705.92, 19545.46, -78644.95, -77306.43, -58690.20, -46371.31, -68005.56, -64519.92, 0.000, 0.000, 0.000, 18:32:16.861, 1576539136861
92, 28810.37, 19694.93, -78695.93, -77879.22, -59009.96, -46649.88, -67908.82, -64404.56, 0.000, 0.000, 0.000, 18:32:16.868, 1576539136868
93, 28940.86, 19891.13, -78596.64, -78401.98, -59277.07, -47302.79, -67700.13, -64212.83, 0.000, 0.000, 0.000, 18:32:16.868, 1576539136868
94, 28843.88, 19757.91, -78537.88, -77909.35, -58996.85, -47120.38, -67766.22, -64309.52, 0.000, 0.000, 0.000, 18:32:16.876, 1576539136876
95, 28713.86, 19566.27, -78609.20, -77296.02, -58676.46, -46439.21, -67970.42, -64504.61, 0.000, 0.000, 0.000, 18:32:16.876, 1576539136876
96, 28823.22, 19697.97, -78663.66, -77711.70, -58911.04, -46538.43, -67924.80, -64434.51, 0.000, 0.000, 0.000, 18:32:16.884, 1576539136884
97, 28994.08, 19922.13, -78568.95, -78346.39, -59240.41, -47228.95, -67692.41, -64209.88, 0.000, 0.000, 0.000, 18:32:16.884, 1576539136884
98, 28874.43, 19799.71, -78537.75, -78041.45, -59063.70, -47221.01, -67735.10, -64281.89, 0.114, 0.858, 0.496, 18:32:16.891, 1576539136891
99, 28693.56, 19563.41, -78622.68, -77366.98, -58713.76, -46530.77, -67971.12, -64510.66, 0.000, 0.000, 0.000, 18:32:16.891, 1576539136891
100, 28737.14, 19599.22, -78705.48, -77598.13, -58863.36, -46434.74, -67994.74, -64507.29, 0.000, 0.000, 0.000, 18:32:16.898, 1576539136898
101, 28944.68, 19873.34, -78623.96, -78314.90, -59244.39, -47129.08, -67760.63, -64278.07, 0.000, 0.000, 0.000, 18:32:16.898, 1576539136898
102, 28915.74, 19857.13, -78537.27, -78193.30, -59158.54, -47325.73, -67717.11, -64267.63, 0.000, 0.000, 0.000, 18:32:16.905, 1576539136905
103, 28730.06, 19602.99, -78580.04, -77447.14, -58759.70, -46670.38, -67931.80, -64476.76, 0.000, 0.000, 0.000, 18:32:16.913, 1576539136913
104, 28741.97, 19591.88, -78670.59, -77468.71, -58783.34, -46380.85, -67997.55, -64520.30, 0.000, 0.000, 0.000, 18:32:16.913, 1576539136913
105, 28913.90, 19825.46, -78640.01, -78217.80, -59181.67, -47002.74, -67806.56, -64324.38, 0.000, 0.000, 0.000, 18:32:16.921, 1576539136921
106, 28925.44, 19859.72, -78560.41, -78299.84, -59210.91, -47362.03, -67711.73, -64255.63, 0.000, 0.000, 0.000, 18:32:16.921, 1576539136921
107, 28743.07, 19622.10, -78591.30, -77585.79, -58822.77, -46800.91, -67913.25, -64469.09, 0.000, 0.000, 0.000, 18:32:16.928, 1576539136928
108, 28710.39, 19563.83, -78676.22, -77394.79, -58742.44, -46354.61, -68032.70, -64555.97, 0.120, 0.860, 0.492, 18:32:16.928, 1576539136928
109, 28897.23, 19805.16, -78655.59, -78084.16, -59117.81, -46861.44, -67842.86, -64356.32, 0.000, 0.000, 0.000, 18:32:16.939, 1576539136939
110, 28942.51, 19884.92, -78572.17, -78368.72, -59248.48, -47362.32, -67701.33, -64250.09, 0.000, 0.000, 0.000, 18:32:16.939, 1576539136939
111, 28774.54, 19661.46, -78578.09, -77719.23, -58886.45, -46938.44, -67860.81, -64430.51, 0.000, 0.000, 0.000, 18:32:16.943, 1576539136943
112, 28692.98, 19537.03, -78681.76, -77339.38, -58710.32, -46365.52, -68039.36, -64579.26, 0.000, 0.000, 0.000, 18:32:16.943, 1576539136943
113, 28840.37, 19744.10, -78686.85, -77956.94, -59054.13, -46726.68, -67903.37, -64422.31, 0.000, 0.000, 0.000, 18:32:16.951, 1576539136951
114, 28941.53, 19892.25, -78593.58, -78407.73, -59278.81, -47339.32, -67718.02, -64259.25, 0.000, 0.000, 0.000, 18:32:16.951, 1576539136951
115, 28832.72, 19735.29, -78548.77, -77857.23, -58966.45, -47082.14, -67804.41, -64365.02, 0.000, 0.000, 0.000, 18:32:16.959, 1576539136959
116, 28701.81, 19552.68, -78638.55, -77317.41, -58685.09, -46419.99, -68002.37, -64547.25, 0.000, 0.000, 0.000, 18:32:16.959, 1576539136959
117, 28808.13, 19699.87, -78683.84, -77807.31, -58955.72, -46593.77, -67933.34, -64460.13, 0.000, 0.000, 0.000, 18:32:16.966, 1576539136966
118, 28937.84, 19873.03, -78614.99, -78413.80, -59266.12, -47269.38, -67737.98, -64288.11, 0.114, 0.854, 0.498, 18:32:16.973, 1576539136973
119, 28850.27, 19766.79, -78554.51, -78027.30, -59046.85, -47199.02, -67779.16, -64356.88, 0.000, 0.000, 0.000, 18:32:16.973, 1576539136973
120, 28702.32, 19557.31, -78615.62, -77356.75, -58696.21, -46504.23, -67990.67, -64554.00, 0.000, 0.000, 0.000, 18:32:16.980, 1576539136980
121, 28766.65, 19633.86, -78697.38, -77675.23, -58883.05, -46489.35, -67984.73, -64521.71, 0.000, 0.000, 0.000, 18:32:16.980, 1576539136980
122, 28921.28, 19861.45, -78634.80, -78374.87, -59255.97, -47179.43, -67770.09, -64317.07, 0.000, 0.000, 0.000, 18:32:16.988, 1576539136988
123, 28876.55, 19818.08, -78555.36, -78168.20, -59130.82, -47289.11, -67749.50, -64322.08, 0.000, 0.000, 0.000, 18:32:16.988, 1576539136988
124, 28671.59, 19549.53, -78624.52, -77446.71, -58740.98, -46615.52, -67978.38, -64553.56, 0.000, 0.000, 0.000, 18:32:16.995, 1576539136995
125, 28716.11, 19582.12, -78702.99, -77562.25, -58827.33, -46421.64, -68026.75, -64567.37, 0.000, 0.000, 0.000, 18:32:16.995, 1576539136995
126, 28901.38, 19827.00, -78655.07, -78296.62, -59223.27, -47072.57, -67817.20, -64352.23, 0.000, 0.000, 0.000, 18:32:17.003, 1576539137003
127, 28914.53, 19853.58, -78561.28, -78280.21, -59193.30, -47359.52, -67722.48, -64292.58, 0.000, 0.000, 0.000, 18:32:17.003, 1576539137003
128, 28757.31, 19637.19, -78570.38, -77517.88, -58780.70, -46747.09, -67908.06, -64489.88, 0.114, 0.858, 0.504, 18:32:17.011, 1576539137011
129, 28740.01, 19602.77, -78657.77, -77417.41, -58743.54, -46364.54, -68007.33, -64561.13, 0.000, 0.000, 0.000, 18:32:17.011, 1576539137011
130, 28897.77, 19810.42, -78658.83, -78154.88, -59141.64, -46919.64, -67843.63, -64391.55, 0.000, 0.000, 0.000, 18:32:17.019, 1576539137019
131, 28932.54, 19870.88, -78570.89, -78355.24, -59231.23, -47368.64, -67724.30, -64294.10, 0.000, 0.000, 0.000, 18:32:17.019, 1576539137019
132, 28775.32, 19661.26, -78564.30, -77656.22, -58849.97, -46882.34, -67878.52, -64467.14, 0.000, 0.000, 0.000, 18:32:17.025, 1576539137025
133, 28696.15, 19540.36, -78669.84, -77361.89, -58707.01, -46362.19, -68033.43, -64609.55, 0.000, 0.000, 0.000, 18:32:17.033, 1576539137033
134, 28839.14, 19741.93, -78695.05, -78041.49, -59084.13, -46794.02, -67895.59, -64443.90, 0.000, 0.000, 0.000, 18:32:17.033, 1576539137033
135, 28944.90, 19896.58, -78588.35, -78416.82, -59271.68, -47368.48, -67703.79, -64271.75, 0.000, 0.000, 0.000, 18:32:17.042, 1576539137042
136, 28821.08, 19715.11, -78549.37, -77795.11, -58921.48, -47019.55, -67807.13, -64400.65, 0.000, 0.000, 0.000, 18:32:17.042, 1576539137042
137, 28715.93, 19555.29, -78634.93, -77317.09, -58676.93, -46385.32, -67995.19, -64567.10, 0.000, 0.000, 0.000, 18:32:17.048, 1576539137048
138, 28837.59, 19720.21, -78670.20, -77875.42, -58984.22, -46650.57, -67907.32, -64460.35, 0.106, 0.860, 0.502, 18:32:17.048, 1576539137048
139, 28956.04, 19896.72, -78591.66, -78420.24, -59259.37, -47311.04, -67706.09, -64278.00, 0.000, 0.000, 0.000, 18:32:17.058, 1576539137058
140, 28852.17, 19756.75, -78542.75, -77958.30, -58993.18, -47145.75, -67771.16, -64373.56, 0.000, 0.000, 0.000, 18:32:17.058, 1576539137058
141, 28697.87, 19546.62, -78627.49, -77348.74, -58683.79, -46462.41, -68001.52, -64599.94, 0.000, 0.000, 0.000, 18:32:17.064, 1576539137064
142, 28771.46, 19644.48, -78691.70, -77748.55, -58908.89, -46545.38, -67969.62, -64544.95, 0.000, 0.000, 0.000, 18:32:17.064, 1576539137064
143, 28928.48, 19854.83, -78628.61, -78413.88, -59255.21, -47242.33, -67758.77, -64342.20, 0.000, 0.000, 0.000, 18:32:17.071, 1576539137071
144, 28878.47, 19796.13, -78544.01, -78114.47, -59074.79, -47264.26, -67744.31, -64346.82, 0.000, 0.000, 0.000, 18:32:17.071, 1576539137071
145, 28736.61, 19580.93, -78579.68, -77393.02, -58689.89, -46569.01, -67941.34, -64539.54, 0.000, 0.000, 0.000, 18:32:17.078, 1576539137078
146, 28770.27, 19612.61, -78682.14, -77601.88, -58825.30, -46444.93, -67985.76, -64560.53, 0.000, 0.000, 0.000, 18:32:17.078, 1576539137078
147, 28946.13, 19866.88, -78619.66, -78332.27, -59214.93, -47122.80, -67765.21, -64340.52, 0.000, 0.000, 0.000, 18:32:17.085, 1576539137085
148, 28913.43, 19843.03, -78547.49, -78230.79, -59143.86, -47332.48, -67719.01, -64321.61, 0.110, 0.860, 0.504, 18:32:17.085, 1576539137085
149, 28716.58, 19577.74, -78600.60, -77500.85, -58752.14, -46692.55, -67939.49, -64543.72, 0.000, 0.000, 0.000, 18:32:17.093, 1576539137093
150, 28702.90, 19556.86, -78709.56, -77516.20, -58786.27, -46390.51, -68039.87, -64613.68, 0.000, 0.000, 0.000, 18:32:17.100, 1576539137100
151, 28894.79, 19800.31, -78670.80, -78249.63, -59191.69, -46999.75, -67840.67, -64408.27, 0.000, 0.000, 0.000, 18:32:17.100, 1576539137100
152, 28946.00, 19861.74, -78558.80, -78334.48, -59220.79, -47383.17, -67717.22, -64317.30, 0.000, 0.000, 0.000, 18:32:17.108, 1576539137108
153, 28750.22, 19615.62, -78583.75, -77613.10, -58819.48, -46834.88, -67901.40, -64518.69, 0.000, 0.000, 0.000, 18:32:17.108, 1576539137108
154, 28699.06, 19551.23, -78676.88, -77403.87, -58732.49, -46365.54, -68032.12, -64620.52, 0.000, 0.000, 0.000, 18:32:17.115, 1576539137115
155, 28880.26, 19786.34, -78664.55, -78105.80, -59108.83, -46863.61, -67863.38, -64441.84, 0.000, 0.000, 0.000, 18:32:17.116, 1576539137116
156, 28945.64, 19883.93, -78577.16, -78400.57, -59240.41, -47382.10, -67712.87, -64319.55, 0.000, 0.000, 0.000, 18:32:17.124, 1576539137124
157, 28807.33, 19694.63, -78562.65, -77747.12, -58880.28, -46968.64, -67848.31, -64469.22, 0.000, 0.000, 0.000, 18:32:17.124, 1576539137124
158, 28704.11, 19552.34, -78661.80, -77347.00, -58682.76, -46376.45, -68023.98, -64620.10, 0.000, 0.000, 0.000, 18:32:17.130, 1576539137130
159, 28858.00, 19740.70, -78680.09, -77962.08, -59019.18, -46712.84, -67903.28, -64480.94, 0.114, 0.858, 0.498, 18:32:17.130, 1576539137130
160, 28981.90, 19909.84, -78579.34, -78425.70, -59252.53, -47332.12, -67703.79, -64308.29, 0.000, 0.000, 0.000, 18:32:17.138, 1576539137138
161, 28839.58, 19742.13, -78545.28, -77895.13, -58957.75, -47079.30, -67808.06, -64440.12, 0.000, 0.000, 0.000, 18:32:17.138, 1576539137138
162, 28702.86, 19547.85, -78628.56, -77344.56, -58680.97, -46412.99, -68015.06, -64632.05, 0.000, 0.000, 0.000, 18:32:17.146, 1576539137146
163, 28820.79, 19691.30, -78676.95, -77817.93, -58947.92, -46579.76, -67940.34, -64534.16, 0.000, 0.000, 0.000, 18:32:17.146, 1576539137146
164, 28967.39, 19893.37, -78599.95, -78423.22, -59257.64, -47263.54, -67733.09, -64340.07, 0.000, 0.000, 0.000, 18:32:17.152, 1576539137152
165, 28881.00, 19793.77, -78544.27, -78057.25, -59042.29, -47202.19, -67768.77, -64404.74, 0.000, 0.000, 0.000, 18:32:17.161, 1576539137161
166, 28731.58, 19584.44, -78601.94, -77387.73, -58689.09, -46510.13, -67976.34, -64609.66, 0.000, 0.000, 0.000, 18:32:17.161, 1576539137161
167, 28785.13, 19650.94, -78680.98, -77675.66, -58857.68, -46465.95, -67977.82, -64585.59, 0.000, 0.000, 0.000, 18:32:17.168, 1576539137168
168, 28941.35, 19868.64, -78637.03, -78388.59, -59232.99, -47152.21, -67773.55, -64387.50, 0.000, 0.000, 0.000, 18:32:17.168, 1576539137168
169, 28915.71, 19827.76, -78543.00, -78196.59, -59120.68, -47284.80, -67738.73, -64381.80, 0.112, 0.858, 0.500, 18:32:17.176, 1576539137176
170, 28743.29, 19590.25, -78587.14, -77455.61, -58732.47, -46611.30, -67959.07, -64607.29, 0.000, 0.000, 0.000, 18:32:17.176, 1576539137176
171, 28761.29, 19607.71, -78672.57, -77547.03, -58809.58, -46395.38, -68026.05, -64644.57, 0.000, 0.000, 0.000, 18:32:17.186, 1576539137186
172, 28923.58, 19832.84, -78638.27, -78291.14, -59195.91, -47042.69, -67819.39, -64432.10, 0.000, 0.000, 0.000, 18:32:17.186, 1576539137186
173, 28949.62, 19875.28, -78532.85, -78298.02, -59172.42, -47347.00, -67708.48, -64352.61, 0.000, 0.000, 0.000, 18:32:17.190, 1576539137190
174, 28781.31, 19650.33, -78549.26, -77554.98, -58765.50, -46747.53, -67893.66, -64557.34, 0.000, 0.000, 0.000, 18:32:17.190, 1576539137190
175, 28745.71, 19594.57, -78643.78, -77431.40, -58724.04, -46353.14, -68009.12, -64645.60, 0.000, 0.000, 0.000, 18:32:17.198, 1576539137198
176, 28913.43, 19823.11, -78636.66, -78144.87, -59115.58, -46891.52, -67837.07, -64461.89, 0.000, 0.000, 0.000, 18:32:17.198, 1576539137198
177, 28946.49, 19879.82, -78571.90, -78378.42, -59226.46, -47355.05, -67726.32, -64381.05, 0.000, 0.000, 0.000, 18:32:17.205, 1576539137205
178, 28785.11, 19661.26, -78561.44, -77707.36, -58855.05, -46891.81, -67888.64, -64562.05, 0.000, 0.000, 0.000, 18:32:17.205, 1576539137205
179, 28711.69, 19550.91, -78646.95, -77383.28, -58701.25, -46358.05, -68040.85, -64693.61, 0.112, 0.860, 0.494, 18:32:17.212, 1576539137212
180, 28863.52, 19754.54, -78655.61, -78039.48, -59063.75, -46773.84, -67895.30, -64531.32, 0.000, 0.000, 0.000, 18:32:17.220, 1576539137220
181, 28972.17, 19916.23, -78541.63, -78429.09, -59257.60, -47360.48, -67709.89, -64368.66, 0.000, 0.000, 0.000, 18:32:17.220, 1576539137220
182, 28839.25, 19740.59, -78509.13, -77830.02, -58921.92, -47034.48, -67813.23, -64489.86, 0.000, 0.000, 0.000, 18:32:17.229, 1576539137229
183, 28708.83, 19552.86, -78626.10, -77357.13, -58681.69, -46388.16, -68029.12, -64687.69, 0.000, 0.000, 0.000, 18:32:17.229, 1576539137229
184, 28856.03, 19743.47, -78647.76, -77894.30, -58989.07, -46635.37, -67925.72, -64562.92, 0.000, 0.000, 0.000, 18:32:17.235, 1576539137235
185, 28982.41, 19921.71, -78562.36, -78441.90, -59263.17, -47297.79, -67715.97, -64374.30, 0.000, 0.000, 0.000, 18:32:17.235, 1576539137235
186, 28849.69, 19761.15, -78536.80, -78013.98, -59019.85, -47154.78, -67801.76, -64486.05, 0.000, 0.000, 0.000, 18:32:17.243, 1576539137243
187, 28698.50, 19548.79, -78622.41, -77394.45, -58706.14, -46469.10, -68027.78, -64697.99, 0.000, 0.000, 0.000, 18:32:17.243, 1576539137243
188, 28799.39, 19664.79, -78678.00, -77777.41, -58922.88, -46529.63, -68004.95, -64643.41, 0.000, 0.000, 0.000, 18:32:17.251, 1576539137251
189, 28976.38, 19895.69, -78596.29, -78429.92, -59263.48, -47221.97, -67782.20, -64420.45, 0.108, 0.854, 0.494, 18:32:17.251, 1576539137251
190, 28914.53, 19827.76, -78525.38, -78147.66, -59091.35, -47261.13, -67772.19, -64439.56, 0.000, 0.000, 0.000, 18:32:17.257, 1576539137257
191, 28719.17, 19591.44, -78604.35, -77443.80, -58722.81, -46573.12, -68000.80, -64671.44, 0.000, 0.000, 0.000, 18:32:17.257, 1576539137257
192, 28750.56, 19615.67, -78698.05, -77633.73, -58844.45, -46428.21, -68034.26, -64679.51, 0.000, 0.000, 0.000, 18:32:17.265, 1576539137265
193, 28938.76, 19846.25, -78644.97, -78363.34, -59228.99, -47102.48, -67803.21, -64465.02, 0.000, 0.000, 0.000, 18:32:17.265, 1576539137265
194, 28921.30, 19839.38, -78555.00, -78280.37, -59167.50, -47331.80, -67742.21, -64433.08, 0.000, 0.000, 0.000, 18:32:17.272, 1576539137272
195, 28746.60, 19605.09, -78585.49, -77537.53, -58767.65, -46694.83, -67945.88, -64629.89, 0.000, 0.000, 0.000, 18:32:17.280, 1576539137280
196, 28747.27, 19594.25, -78668.05, -77514.71, -58771.00, -46377.25, -68034.13, -64687.13, 0.000, 0.000, 0.000, 18:32:17.280, 1576539137280
197, 28927.18, 19837.75, -78637.99, -78249.19, -59163.19, -46978.76, -67837.79, -64492.47, 0.000, 0.000, 0.000, 18:32:17.287, 1576539137287
198, 28951.70, 19885.03, -78551.31, -78370.87, -59210.62, -47371.44, -67724.17, -64413.70, 0.000, 0.000, 0.000, 18:32:17.288, 1576539137288
199, 28780.96, 19653.51, -78562.16, -77651.23, -58823.00, -46834.75, -67907.91, -64605.23, 0.108, 0.854, 0.494, 18:32:17.295, 1576539137295
200, 28725.21, 19564.46, -78657.93, -77423.60, -58723.26, -46355.86, -68050.24, -64714.87, 0.000, 0.000, 0.000, 18:32:17.295, 1576539137295
201, 28889.34, 19781.49, -78663.59, -78122.45, -59102.30, -46835.42, -67892.33, -64547.95, 0.000, 0.000, 0.000, 18:32:17.303, 1576539137303
202, 28975.19, 19901.46, -78563.07, -78441.19, -59253.58, -47367.84, -67719.23, -64404.58, 0.000, 0.000, 0.000, 18:32:17.303, 1576539137303
203, 28813.43, 19694.66, -78542.93, -77796.67, -58897.45, -46965.26, -67851.11, -64559.08, 0.000, 0.000, 0.000, 18:32:17.310, 1576539137310
204, 28692.78, 19532.29, -78656.66, -77400.71, -58694.43, -46367.20, -68044.56, -64729.02, 0.000, 0.000, 0.000, 18:32:17.310, 1576539137310
205, 28830.02, 19706.86, -78697.02, -78010.83, -59036.90, -46698.54, -67942.51, -64606.20, 0.000, 0.000, 0.000, 18:32:17.318, 1576539137318
206, 28963.37, 19890.66, -78581.73, -78485.00, -59276.73, -47339.36, -67738.39, -64421.39, 0.000, 0.000, 0.000, 18:32:17.318, 1576539137318
207, 28831.71, 19724.95, -78556.95, -77973.34, -58990.97, -47117.68, -67827.57, -64532.61, 0.000, 0.000, 0.000, 18:32:17.326, 1576539137326
208, 28699.73, 19535.18, -78642.40, -77408.24, -58702.27, -46446.59, -68029.66, -64721.80, 0.000, 0.000, 0.000, 18:32:17.327, 1576539137327
209, 28805.41, 19668.10, -78692.35, -77856.98, -58954.33, -46581.61, -67970.85, -64641.36, 0.000, 0.000, 0.000, 18:32:17.333, 1576539137333
210, 28940.66, 19860.82, -78632.56, -78481.46, -59281.56, -47264.08, -67777.30, -64464.75, 0.108, 0.858, 0.492, 18:32:17.333, 1576539137333
211, 28881.27, 19790.21, -78551.05, -78119.75, -59076.69, -47228.81, -67785.55, -64496.27, 0.000, 0.000, 0.000, 18:32:17.339, 1576539137339
212, 28699.44, 19547.96, -78629.50, -77443.16, -58720.07, -46528.24, -68012.09, -64719.16, 0.000, 0.000, 0.000, 18:32:17.347, 1576539137347
213, 28787.03, 19643.74, -78673.13, -77706.77, -58873.35, -46475.73, -67992.91, -64666.32, 0.000, 0.000, 0.000, 18:32:17.347, 1576539137347
214, 28950.56, 19863.35, -78624.74, -78410.21, -59237.13, -47161.29, -67784.88, -64464.15, 0.000, 0.000, 0.000, 18:32:17.356, 1576539137356
215, 28924.25, 19834.24, -78535.29, -78242.01, -59128.32, -47309.10, -67742.57, -64454.72, 0.000, 0.000, 0.000, 18:32:17.356, 1576539137356
216, 28772.46, 19617.03, -78559.14, -77494.39, -58726.19, -46644.89, -67931.73, -64647.75, 0.000, 0.000, 0.000, 18:32:17.362, 1576539137362
217, 28774.61, 19623.96, -78645.44, -77553.11, -58770.31, -46397.68, -67989.16, -64686.01, 0.000, 0.000, 0.000, 18:32:17.362, 1576539137362
218, 28934.18, 19852.66, -78620.49, -78292.16, -59167.70, -47022.97, -67803.16, -64494.77, 0.000, 0.000, 0.000, 18:32:17.370, 1576539137370
219, 28935.52, 19866.41, -78542.30, -78326.73, -59179.71, -47336.84, -67720.24, -64432.77, 0.000, 0.000, 0.000, 18:32:17.370, 1576539137370
220, 28758.02, 19625.17, -78561.73, -77596.80, -58788.24, -46754.24, -67912.78, -64631.09, 0.106, 0.858, 0.490, 18:32:17.378, 1576539137378
221, 28704.53, 19547.11, -78677.34, -77475.48, -58752.14, -46346.05, -68052.39, -64744.66, 0.000, 0.000, 0.000, 18:32:17.378, 1576539137378
222, 28891.17, 19786.34, -78649.21, -78200.95, -59145.55, -46883.21, -67881.28, -64558.00, 0.000, 0.000, 0.000, 18:32:17.385, 1576539137385
223, 28963.12, 19886.41, -78534.28, -78420.02, -59238.54, -47362.70, -67729.80, -64432.32, 0.000, 0.000, 0.000, 18:32:17.385, 1576539137385
224, 28790.81, 19660.21, -78541.23, -77742.09, -58860.99, -46897.69, -67879.66, -64594.17, 0.000, 0.000, 0.000, 18:32:17.394, 1576539137394
225, 28708.31, 19537.41, -78646.33, -77413.19, -58699.03, -46346.25, -68042.10, -64739.23, 0.000, 0.000, 0.000, 18:32:17.394, 1576539137394
226, 28848.28, 19734.27, -78673.53, -78068.18, -59058.80, -46744.69, -67921.83, -64604.34, 0.000, 0.000, 0.000, 18:32:17.400, 1576539137400
227, 28985.88, 19904.43, -78560.88, -78476.48, -59254.25, -47346.74, -67714.92, -64421.10, 0.000, 0.000, 0.000, 18:32:17.412, 1576539137412
228, 28845.33, 19715.96, -78543.87, -77904.79, -58934.53, -47047.63, -67827.06, -64559.19, 0.000, 0.000, 0.000, 18:32:17.412, 1576539137412
229, 28727.60, 19555.94, -78623.13, -77399.35, -58677.04, -46400.48, -68013.45, -64723.03, 0.000, 0.000, 0.000, 18:32:17.413, 1576539137413
230, 28853.06, 19713.21, -78665.33, -77909.87, -58967.01, -46617.00, -67933.05, -64618.54, 0.112, 0.860, 0.492, 18:32:17.414, 1576539137414
231, 28975.24, 19896.36, -78581.80, -78477.28, -59256.91, -47276.04, -67733.52, -64432.86, 0.000, 0.000, 0.000, 18:32:17.422, 1576539137422
232, 28885.38, 19788.20, -78513.34, -78044.73, -59002.99, -47153.91, -67771.85, -64502.13, 0.000, 0.000, 0.000, 18:32:17.422, 1576539137422
233, 28741.97, 19581.60, -78584.33, -77400.38, -58659.16, -46455.06, -67982.91, -64701.01, 0.000, 0.000, 0.000, 18:32:17.430, 1576539137430
234, 28791.04, 19646.27, -78671.39, -77771.88, -58871.83, -46485.05, -67980.91, -64672.13, 0.000, 0.000, 0.000, 18:32:17.430, 1576539137430
235, 28937.24, 19853.85, -78623.06, -78449.05, -59244.84, -47182.21, -67779.27, -64474.54, 0.000, 0.000, 0.000, 18:32:17.437, 1576539137437
236, 28906.71, 19822.33, -78527.64, -78191.90, -59089.23, -47252.50, -67753.37, -64477.47, 0.000, 0.000, 0.000, 18:32:17.438, 1576539137438
237, 28748.70, 19593.11, -78570.34, -77463.14, -58702.96, -46569.19, -67959.85, -64686.30, 0.000, 0.000, 0.000, 18:32:17.445, 1576539137445
238, 28772.97, 19612.20, -78667.19, -77624.84, -58808.98, -46409.28, -68003.70, -64716.14, 0.000, 0.000, 0.000, 18:32:17.445, 1576539137445
239, 28959.10, 19857.89, -78615.59, -78360.85, -59199.62, -47072.79, -67791.97, -64498.77, 0.000, 0.000, 0.000, 18:32:17.453, 1576539137453
240, 28954.65, 19855.90, -78530.44, -78294.90, -59141.26, -47318.42, -67726.61, -64456.44, 0.114, 0.862, 0.488, 18:32:17.453, 1576539137453
241, 28747.09, 19593.16, -78578.94, -77568.35, -58746.51, -46693.89, -67950.27, -64690.46, 0.000, 0.000, 0.000, 18:32:17.460, 1576539137460
242, 28746.55, 19577.63, -78660.52, -77532.77, -58749.03, -46361.65, -68042.58, -64756.62, 0.000, 0.000, 0.000, 18:32:17.466, 1576539137466
243, 28924.23, 19815.27, -78628.90, -78261.77, -59139.85, -46945.57, -67849.23, -64554.72, 0.000, 0.000, 0.000, 18:32:17.466, 1576539137466
244, 28941.11, 19851.70, -78557.98, -78418.37, -59213.30, -47358.41, -67751.63, -64483.80, 0.000, 0.000, 0.000, 18:32:17.474, 1576539137474
245, 28776.48, 19638.13, -78548.34, -77703.80, -58828.43, -46847.96, -67916.16, -64662.30, 0.000, 0.000, 0.000, 18:32:17.474, 1576539137474
246, 28723.24, 19552.21, -78640.84, -77459.52, -58711.08, -46361.81, -68050.58, -64767.89, 0.000, 0.000, 0.000, 18:32:17.482, 1576539137482
247, 28899.98, 19769.85, -78649.46, -78142.91, -59082.21, -46825.32, -67886.31, -64595.55, 0.000, 0.000, 0.000, 18:32:17.483, 1576539137483
248, 28981.27, 19894.13, -78550.76, -78462.17, -59239.23, -47364.86, -67716.93, -64449.62, 0.000, 0.000, 0.000, 18:32:17.491, 1576539137491
249, 28840.03, 19695.13, -78548.27, -77846.85, -58898.01, -46984.15, -67859.42, -64607.52, 0.000, 0.000, 0.000, 18:32:17.491, 1576539137491
250, 28749.35, 19569.31, -78619.94, -77414.68, -58677.33, -46383.64, -68030.04, -64762.07, 0.112, 0.860, 0.494, 18:32:17.498, 1576539137498
251, 28851.41, 19723.42, -78675.43, -77998.27, -59006.23, -46686.36, -67941.55, -64654.25, 0.000, 0.000, 0.000, 18:32:17.498, 1576539137498
252, 28962.72, 19885.43, -78595.86, -78497.96, -59273.27, -47323.31, -67747.66, -64472.82, 0.000, 0.000, 0.000, 18:32:17.505, 1576539137505
253, 28872.60, 19744.39, -78541.28, -77991.88, -58987.39, -47113.09, -67815.84, -64565.45, 0.000, 0.000, 0.000, 18:32:17.505, 1576539137505
254, 28759.99, 19575.01, -78597.80, -77401.25, -58669.91, -46442.61, -67997.98, -64737.64, 0.000, 0.000, 0.000, 18:32:17.512, 1576539137512
255, 28831.54, 19672.51, -78675.45, -77837.84, -58910.37, -46562.08, -67960.48, -64681.92, 0.000, 0.000, 0.000, 18:32:17.512, 1576539137512
0, 28987.89, 19888.40, -78597.90, -78463.16, -59232.68, -47242.29, -67741.52, -64471.95, 0.000, 0.000, 0.000, 18:32:17.519, 1576539137519
1, 28912.43, 19813.05, -78521.27, -78121.73, -59032.12, -47215.22, -67760.80, -64515.38, 0.000, 0.000, 0.000, 18:32:17.527, 1576539137527
2, 28745.19, 19586.99, -78583.50, -77429.84, -58667.61, -46521.67, -67984.59, -64732.91, 0.000, 0.000, 0.000, 18:32:17.527, 1576539137527
3, 28803.62, 19641.93, -78664.33, -77686.68, -58826.75, -46453.32, -67997.67, -64720.97, 0.000, 0.000, 0.000, 18:32:17.535, 1576539137535
4, 28975.04, 19867.26, -78609.49, -78397.34, -59197.32, -47128.79, -67775.74, -64504.16, 0.000, 0.000, 0.000, 18:32:17.536, 1576539137536
5, 28926.80, 19819.36, -78542.84, -78261.44, -59106.41, -47288.38, -67753.77, -64513.08, 0.112, 0.866, 0.494, 18:32:17.541, 1576539137541
6, 28745.08, 19582.90, -78587.48, -77540.14, -58726.77, -46636.49, -67978.56, -64738.90, 0.000, 0.000, 0.000, 18:32:17.541, 1576539137541
7, 28772.26, 19607.20, -78663.30, -77598.66, -58776.41, -46388.45, -68029.77, -64755.04, 0.000, 0.000, 0.000, 18:32:17.549, 1576539137549
8, 28935.23, 19834.36, -78636.43, -78331.41, -59166.59, -46999.41, -67826.95, -64555.01, 0.000, 0.000, 0.000, 18:32:17.549, 1576539137549
9, 28960.89, 19872.64, -78531.76, -78382.18, -59174.90, -47334.27, -67721.24, -64479.08, 0.000, 0.000, 0.000, 18:32:17.557, 1576539137557
10, 28793.52, 19645.48, -78536.36, -77642.89, -58769.04, -46766.31, -67900.22, -64665.70, 0.000, 0.000, 0.000, 18:32:17.557, 1576539137557
11, 28737.88, 19565.44, -78656.28, -77501.66, -58712.96, -46342.56, -68040.36, -64773.81, 0.000, 0.000, 0.000, 18:32:17.564, 1576539137564
12, 28914.24, 19794.99, -78649.55, -78213.96, -59106.17, -46869.06, -67876.68, -64597.57, 0.000, 0.000, 0.000, 18:32:17.564, 1576539137564
13, 28962.96, 19872.33, -78573.78, -78464.50, -59230.63, -47351.70, -67751.89, -64496.61, 0.000, 0.000, 0.000, 18:32:17.572, 1576539137572
14, 28811.24, 19674.45, -78556.61, -77796.74, -58870.07, -46909.47, -67897.94, -64653.69, 0.000, 0.000, 0.000, 18:32:17.572, 1576539137572
15, 28745.91, 19570.52, -78632.00, -77440.03, -58690.52, -46351.68, -68042.66, -64773.01, 0.112, 0.860, 0.492, 18:32:17.579, 1576539137579
16, 28889.56, 19762.67, -78651.49, -78069.01, -59034.51, -46727.53, -67917.31, -64627.23, 0.000, 0.000, 0.000, 18:32:17.579, 1576539137579
17, 28986.93, 19907.00, -78571.81, -78498.27, -59249.80, -47326.71, -67741.14, -64476.80, 0.000, 0.000, 0.000, 18:32:17.593, 1576539137593
18, 28839.72, 19716.65, -78553.35, -77949.94, -58938.31, -47039.07, -67855.70, -64613.01, 0.000, 0.000, 0.000, 18:32:17.594, 1576539137594
19, 28722.77, 19540.59, -78640.72, -77435.80, -58683.18, -46393.95, -68055.45, -64789.26, 0.000, 0.000, 0.000, 18:32:17.594, 1576539137594
20, 28858.04, 19710.42, -78672.91, -77925.76, -58964.05, -46597.82, -67962.82, -64674.82, 0.000, 0.000, 0.000, 18:32:17.602, 1576539137602
21, 28998.17, 19901.52, -78592.28, -78490.67, -59255.46, -47260.80, -67755.65, -64483.15, 0.000, 0.000, 0.000, 18:32:17.602, 1576539137602
22, 28905.72, 19773.76, -78528.70, -78069.59, -59011.02, -47146.04, -67796.68, -64546.79, 0.000, 0.000, 0.000, 18:32:17.610, 1576539137610
23, 28739.63, 19559.74, -78603.44, -77430.22, -58667.63, -46456.76, -68016.40, -64758.57, 0.000, 0.000, 0.000, 18:32:17.610, 1576539137610
24, 28807.06, 19651.41, -78682.77, -77787.45, -58871.52, -46479.22, -68013.38, -64722.51, 0.000, 0.000, 0.000, 18:32:17.617, 1576539137617
25, 28983.42, 19888.31, -78599.35, -78452.77, -59223.02, -47167.59, -67778.47, -64482.57, 0.112, 0.860, 0.496, 18:32:17.617, 1576539137617
26, 28913.37, 19806.15, -78535.31, -78211.34, -59079.77, -47239.89, -67769.86, -64499.13, 0.000, 0.000, 0.000, 18:32:17.624, 1576539137624
27, 28735.36, 19569.33, -78603.21, -77508.74, -58719.68, -46570.02, -68007.20, -64728.97, 0.000, 0.000, 0.000, 18:32:17.624, 1576539137624
28, 28798.68, 19627.87, -78655.52, -77646.41, -58805.31, -46403.65, -68026.91, -64719.27, 0.000, 0.000, 0.000, 18:32:17.636, 1576539137636
29, 28970.03, 19864.78, -78613.45, -78378.00, -59183.10, -47056.43, -67814.97, -64506.28, 0.000, 0.000, 0.000, 18:32:17.636, 1576539137636
30, 28957.71, 19865.47, -78536.12, -78342.88, -59145.46, -47311.87, -67746.46, -64460.84, 0.000, 0.000, 0.000, 18:32:17.639, 1576539137639
31, 28779.41, 19624.81, -78576.21, -77616.95, -58758.46, -46699.07, -67958.22, -64683.60, 0.000, 0.000, 0.000, 18:32:17.639, 1576539137639
32, 28769.46, 19586.34, -78662.96, -77552.55, -58740.96, -46353.76, -68047.67, -64749.36, 0.000, 0.000, 0.000, 18:32:17.646, 1576539137646
33, 28937.95, 19813.32, -78650.16, -78276.30, -59132.01, -46927.93, -67864.01, -64562.45, 0.000, 0.000, 0.000, 18:32:17.654, 1576539137654
34, 28992.71, 19887.40, -78553.35, -78435.82, -59204.47, -47354.34, -67741.66, -64469.49, 0.000, 0.000, 0.000, 18:32:17.654, 1576539137654
35, 28810.93, 19649.78, -78565.44, -77733.40, -58818.84, -46843.42, -67923.98, -64657.25, 0.112, 0.864, 0.496, 18:32:17.663, 1576539137663
36, 28740.27, 19553.71, -78669.84, -77485.02, -58708.89, -46350.99, -68083.26, -64788.07, 0.000, 0.000, 0.000, 18:32:17.664, 1576539137664
37, 28894.03, 19765.63, -78675.74, -78161.27, -59075.05, -46798.27, -67921.72, -64614.84, 0.000, 0.000, 0.000, 18:32:17.669, 1576539137669
38, 28990.75, 19892.56, -78570.98, -78513.12, -59236.19, -47349.80, -67746.10, -64463.46, 0.000, 0.000, 0.000, 18:32:17.669, 1576539137669
39, 28837.28, 19701.18, -78553.59, -77882.10, -58890.56, -46983.45, -67881.71, -64616.43, 0.000, 0.000, 0.000, 18:32:17.676, 1576539137676
40, 28713.18, 19527.18, -78664.81, -77443.36, -58677.53, -46370.10, -68084.40, -64802.89, 0.000, 0.000, 0.000, 18:32:17.676, 1576539137676
41, 28851.14, 19694.10, -78695.91, -78019.79, -58997.52, -46662.55, -67979.30, -64674.86, 0.000, 0.000, 0.000, 18:32:17.684, 1576539137684
42, 28991.08, 19879.84, -78599.44, -78534.02, -59264.55, -47317.99, -67776.12, -64487.71, 0.000, 0.000, 0.000, 18:32:17.684, 1576539137684
43, 28868.69, 19727.65, -78561.23, -78045.41, -58991.59, -47128.52, -67862.60, -64596.58, 0.000, 0.000, 0.000, 18:32:17.693, 1576539137693
44, 28738.31, 19546.60, -78619.89, -77444.26, -58679.16, -46450.88, -68056.45, -64773.97, 0.000, 0.000, 0.000, 18:32:17.694, 1576539137694
45, 28827.02, 19664.59, -78679.79, -77853.54, -58907.68, -46546.70, -67996.38, -64702.46, 0.110, 0.858, 0.494, 18:32:17.700, 1576539137700
46, 28988.60, 19876.80, -78602.77, -78503.39, -59248.57, -47236.14, -67787.30, -64509.50, 0.000, 0.000, 0.000, 18:32:17.700, 1576539137700
47, 28943.25, 19810.82, -78509.94, -78171.38, -59057.93, -47234.82, -67790.09, -64538.58, 0.000, 0.000, 0.000, 18:32:17.707, 1576539137707
48, 28789.22, 19591.59, -78560.86, -77471.30, -58694.41, -46533.96, -68000.84, -64738.90, 0.000, 0.000, 0.000, 18:32:17.714, 1576539137714
49, 28825.41, 19636.57, -78652.84, -77708.48, -58834.98, -46442.16, -68015.69, -64734.72, 0.000, 0.000, 0.000, 18:32:17.714, 1576539137714
50, 28986.21, 19873.90, -78612.27, -78432.91, -59217.95, -47121.43, -67813.49, -64536.55, 0.000, 0.000, 0.000, 18:32:17.721, 1576539137721
51, 28954.29, 19847.63, -78534.98, -78308.91, -59136.54, -47305.66, -67781.08, -64533.44, 0.000, 0.000, 0.000, 18:32:17.721, 1576539137721
52, 28775.54, 19604.00, -78577.73, -77579.04, -58742.24, -46657.81, -67992.41, -64740.75, 0.000, 0.000, 0.000, 18:32:17.730, 1576539137730
53, 28763.86, 19584.40, -78679.73, -77614.73, -58779.68, -46381.88, -68067.67, -64789.30, 0.000, 0.000, 0.000, 18:32:17.730, 1576539137730
54, 28943.92, 19823.92, -78648.84, -78348.65, -59175.55, -46998.88, -67854.84, -64572.40, 0.000, 0.000, 0.000, 18:32:17.737, 1576539137737
55, 28969.65, 19859.61, -78549.30, -78421.20, -59186.52, -47344.30, -67748.38, -64492.74, 0.000, 0.000, 0.000, 18:32:17.737, 1576539137737
56, 28793.81, 19628.09, -78560.12, -77683.02, -58781.78, -46771.23, -67931.66, -64684.65, 0.106, 0.858, 0.498, 18:32:17.744, 1576539137744
57, 28749.10, 19559.45, -78660.23, -77508.07, -58709.22, -46329.91, -68052.81, -64783.04, 0.000, 0.000, 0.000, 18:32:17.744, 1576539137744
58, 28928.36, 19792.78, -78647.94, -78213.31, -59092.78, -46843.33, -67877.59, -64594.39, 0.000, 0.000, 0.000, 18:32:17.751, 1576539137751
59, 28994.88, 19898.75, -78556.90, -78470.02, -59214.82, -47343.34, -67726.68, -64473.02, 0.000, 0.000, 0.000, 18:32:17.751, 1576539137751
60, 28848.66, 19688.51, -78541.32, -77811.05, -58848.83, -46916.22, -67868.19, -64634.14, 0.000, 0.000, 0.000, 18:32:17.762, 1576539137762
61, 28744.34, 19541.53, -78653.02, -77455.14, -58678.25, -46348.64, -68053.03, -64793.95, 0.000, 0.000, 0.000, 18:32:17.762, 1576539137762
62, 28893.18, 19736.05, -78690.90, -78091.72, -59039.36, -46708.04, -67945.63, -64665.38, 0.000, 0.000, 0.000, 18:32:17.770, 1576539137770
63, 28988.29, 19887.89, -78588.24, -78531.51, -59265.63, -47309.48, -67766.27, -64511.20, 0.000, 0.000, 0.000, 18:32:17.773, 1576539137773
64, 28835.85, 19711.87, -78540.05, -77967.06, -58949.57, -47030.01, -67851.55, -64612.90, 0.000, 0.000, 0.000, 18:32:17.773, 1576539137773
65, 28714.23, 19539.34, -78621.19, -77437.30, -58680.97, -46374.17, -68050.24, -64788.16, 0.000, 0.000, 0.000, 18:32:17.783, 1576539137783
66, 28841.24, 19695.64, -78657.77, -77911.07, -58956.93, -46564.94, -67972.21, -64688.43, 0.102, 0.854, 0.504, 18:32:17.784, 1576539137784
67, 28974.74, 19890.41, -78584.62, -78494.77, -59262.61, -47243.09, -67767.45, -64502.93, 0.000, 0.000, 0.000, 18:32:17.790, 1576539137790
68, 28892.11, 19786.66, -78522.68, -78101.46, -59031.20, -47156.66, -67807.95, -64569.88, 0.000, 0.000, 0.000, 18:32:17.790, 1576539137790
69, 28720.45, 19552.79, -78607.98, -77453.42, -58688.84, -46464.45, -68036.80, -64793.68, 0.000, 0.000, 0.000, 18:32:17.796, 1576539137796
70, 28784.29, 19630.93, -78693.94, -77797.95, -58888.29, -46470.95, -68039.80, -64772.31, 0.000, 0.000, 0.000, 18:32:17.796, 1576539137796
71, 28958.36, 19859.21, -78631.67, -78487.68, -59250.05, -47160.21, -67818.52, -64559.17, 0.000, 0.000, 0.000, 18:32:17.804, 1576539137804
72, 28919.11, 19813.17, -78557.57, -78277.37, -59121.64, -47264.13, -67803.59, -64568.76, 0.000, 0.000, 0.000, 18:32:17.804, 1576539137804
73, 28768.93, 19599.19, -78594.70, -77547.54, -58735.18, -46598.45, -68005.13, -64763.73, 0.000, 0.000, 0.000, 18:32:17.812, 1576539137812
74, 28818.13, 19646.87, -78661.98, -77652.95, -58803.66, -46403.61, -68025.59, -64758.05, 0.000, 0.000, 0.000, 18:32:17.812, 1576539137812
75, 28987.89, 19876.58, -78630.93, -78383.45, -59184.82, -47042.06, -67817.41, -64550.43, 0.000, 0.000, 0.000, 18:32:17.820, 1576539137820
76, 28976.15, 19866.54, -78551.09, -78376.52, -59159.07, -47310.33, -67753.99, -64520.05, 0.108, 0.854, 0.498, 18:32:17.820, 1576539137820
77, 28800.87, 19636.37, -78572.77, -77641.58, -58762.89, -46706.25, -67950.10, -64724.10, 0.000, 0.000, 0.000, 18:32:17.826, 1576539137826
78, 28795.21, 19607.55, -78665.98, -77554.72, -58740.47, -46344.69, -68052.34, -64796.34, 0.000, 0.000, 0.000, 18:32:17.826, 1576539137826
79, 28966.83, 19839.05, -78647.13, -78270.82, -59130.06, -46903.82, -67870.47, -64611.00, 0.000, 0.000, 0.000, 18:32:17.833, 1576539137833
80, 28990.77, 19904.29, -78561.73, -78450.62, -59218.82, -47335.50, -67753.66, -64517.23, 0.000, 0.000, 0.000, 18:32:17.841, 1576539137841
81, 28823.42, 19687.64, -78561.82, -77758.19, -58832.63, -46848.07, -67922.41, -64698.95, 0.000, 0.000, 0.000, 18:32:17.841, 1576539137841
82, 28743.16, 19565.22, -78672.66, -77483.86, -58702.43, -46340.91, -68076.86, -64822.76, 0.000, 0.000, 0.000, 18:32:17.848, 1576539137848
83, 28902.82, 19776.31, -78682.63, -78153.38, -59071.08, -46777.75, -67931.55, -64672.04, 0.000, 0.000, 0.000, 18:32:17.848, 1576539137848
84, 28999.91, 19911.76, -78583.27, -78521.02, -59255.01, -47347.57, -67759.96, -64522.42, 0.000, 0.000, 0.000, 18:32:17.856, 1576539137856
85, 28865.24, 19728.43, -78536.47, -77900.95, -58905.65, -46997.43, -67862.09, -64640.44, 0.000, 0.000, 0.000, 18:32:17.856, 1576539137856
86, 28759.92, 19573.62, -78634.98, -77438.53, -58673.13, -46370.35, -68066.29, -64818.40, 0.110, 0.860, 0.498, 18:32:17.864, 1576539137864
87, 28897.36, 19752.01, -78666.00, -77988.56, -58989.05, -46637.36, -67966.53, -64700.39, 0.000, 0.000, 0.000, 18:32:17.864, 1576539137864
88, 29015.07, 19921.19, -78590.77, -78523.62, -59259.01, -47284.93, -67759.11, -64526.06, 0.000, 0.000, 0.000, 18:32:17.872, 1576539137872
89, 28914.82, 19790.93, -78536.77, -78053.67, -58992.36, -47116.38, -67824.34, -64618.04, 0.000, 0.000, 0.000, 18:32:17.872, 1576539137872
90, 28757.24, 19578.18, -78618.48, -77448.55, -58677.15, -46437.13, -68047.00, -64831.37, 0.000, 0.000, 0.000, 18:32:17.880, 1576539137880
91, 28828.29, 19671.01, -78709.59, -77869.38, -58923.22, -46525.89, -68029.95, -64784.56, 0.000, 0.000, 0.000, 18:32:17.880, 1576539137880
92, 28990.53, 19886.30, -78632.88, -78518.26, -59269.65, -47219.98, -67815.26, -64573.76, 0.000, 0.000, 0.000, 18:32:17.887, 1576539137887
93, 28918.42, 19801.43, -78557.46, -78214.70, -59090.32, -47229.59, -67823.98, -64610.09, 0.000, 0.000, 0.000, 18:32:17.887, 1576539137887
94, 28744.14, 19571.77, -78622.82, -77512.30, -58716.53, -46543.06, -68041.21, -64828.59, 0.000, 0.000, 0.000, 18:32:17.894, 1576539137894
95, 28799.10, 19640.99, -78700.53, -77730.67, -58844.99, -46442.70, -68053.48, -64811.83, 0.000, 0.000, 0.000, 18:32:17.901, 1576539137901
96, 28971.91, 19872.00, -78654.76, -78454.80, -59230.82, -47117.27, -67846.80, -64603.18, 0.116, 0.860, 0.498, 18:32:17.901, 1576539137901
97, 28986.50, 19887.15, -78533.55, -78331.71, -59146.27, -47315.45, -67771.31, -64551.10, 0.000, 0.000, 0.000, 18:32:17.908, 1576539137908
98, 28796.15, 19635.74, -78583.91, -77580.65, -58741.39, -46663.98, -67983.32, -64772.16, 0.000, 0.000, 0.000, 18:32:17.908, 1576539137908
99, 28793.81, 19618.30, -78674.92, -77598.23, -58768.37, -46374.64, -68058.55, -64814.49, 0.000, 0.000, 0.000, 18:32:17.916, 1576539137916
100, 28958.49, 19841.02, -78650.65, -78348.12, -59163.86, -46979.66, -67864.68, -64614.40, 0.000, 0.000, 0.000, 18:32:17.916, 1576539137916
101, 28977.47, 19875.64, -78571.20, -78448.12, -59200.16, -47347.74, -67764.02, -64544.57, 0.000, 0.000, 0.000, 18:32:17.924, 1576539137924
102, 28822.78, 19663.59, -78572.28, -77718.66, -58800.31, -46801.11, -67928.05, -64722.27, 0.000, 0.000, 0.000, 18:32:17.924, 1576539137924
103, 28788.67, 19588.24, -78672.69, -77519.06, -58712.71, -46352.73, -68053.80, -64820.17, 0.000, 0.000, 0.000, 18:32:17.931, 1576539137931
104, 28920.99, 19783.35, -78681.96, -78215.75, -59092.33, -46835.53, -67896.20, -64655.86, 0.000, 0.000, 0.000, 18:32:17.931, 1576539137931
105, 28967.90, 19879.22, -78592.46, -78511.53, -59237.39, -47348.75, -67758.33, -64545.18, 0.000, 0.000, 0.000, 18:32:17.939, 1576539137939
106, 28832.92, 19691.13, -78557.69, -77854.05, -58870.09, -46930.10, -67882.85, -64678.86, 0.000, 0.000, 0.000, 18:32:17.940, 1576539137940
107, 28731.89, 19551.16, -78650.29, -77454.58, -58667.54, -46348.71, -68054.17, -64827.52, 0.114, 0.854, 0.496, 18:32:17.947, 1576539137947
108, 28874.00, 19740.05, -78686.66, -78081.73, -59016.18, -46703.50, -67943.18, -64699.89, 0.000, 0.000, 0.000, 18:32:17.947, 1576539137947
109, 29013.99, 19919.00, -78570.31, -78531.51, -59239.30, -47319.00, -67735.93, -64514.31, 0.000, 0.000, 0.000, 18:32:17.953, 1576539137953
110, 28878.47, 19748.59, -78538.87, -77988.05, -58935.00, -47054.45, -67842.23, -64644.64, 0.000, 0.000, 0.000, 18:32:17.960, 1576539137960
111, 28740.52, 19559.54, -78640.59, -77464.23, -58674.80, -46403.88, -68074.83, -64861.47, 0.000, 0.000, 0.000, 18:32:17.960, 1576539137960
112, 28864.24, 19708.96, -78677.45, -77930.13, -58941.77, -46582.91, -68000.69, -64762.37, 0.000, 0.000, 0.000, 18:32:17.969, 1576539137969
113, 29010.33, 19911.69, -78600.33, -78524.67, -59248.39, -47260.04, -67806.96, -64561.60, 0.000, 0.000, 0.000, 18:32:17.969, 1576539137969
114, 28912.34, 19795.35, -78546.51, -78150.37, -59034.96, -47190.43, -67856.18, -64627.77, 0.000, 0.000, 0.000, 18:32:17.977, 1576539137977
115, 28760.53, 19580.93, -78611.84, -77482.34, -58694.43, -46498.62, -68066.73, -64830.81, 0.000, 0.000, 0.000, 18:32:17.977, 1576539137977
116, 28839.87, 19662.85, -78681.98, -77782.86, -58873.06, -46472.98, -68057.23, -64799.94, 0.000, 0.000, 0.000, 18:32:17.983, 1576539137983
117, 28998.24, 19892.25, -78623.64, -78483.09, -59229.13, -47153.48, -67834.73, -64595.78, 0.112, 0.862, 0.492, 18:32:17.983, 1576539137983
118, 28959.14, 19862.86, -78527.91, -78272.86, -59097.16, -47265.91, -67789.98, -64580.27, 0.000, 0.000, 0.000, 18:32:17.991, 1576539137991
119, 28784.75, 19624.41, -78572.19, -77540.41, -58710.72, -46598.63, -68002.70, -64798.18, 0.000, 0.000, 0.000, 18:32:17.991, 1576539137991
120, 28807.17, 19632.19, -78662.47, -77640.66, -58785.62, -46394.55, -68061.55, -64840.64, 0.000, 0.000, 0.000, 18:32:17.999, 1576539137999
121, 28984.51, 19870.14, -78624.29, -78374.84, -59176.33, -47037.99, -67850.66, -64625.48, 0.000, 0.000, 0.000, 18:32:17.999, 1576539137999
122, 28982.01, 19884.96, -78531.09, -78380.81, -59158.27, -47319.94, -67770.20, -64563.61, 0.000, 0.000, 0.000, 18:32:18.007, 1576539138007
123, 28809.81, 19657.49, -78544.50, -77642.34, -58765.08, -46725.25, -67960.55, -64768.67, 0.000, 0.000, 0.000, 18:32:18.007, 1576539138007
124, 28769.46, 19598.10, -78662.55, -77552.15, -58737.45, -46352.06, -68086.07, -64880.16, 0.000, 0.000, 0.000, 18:32:18.013, 1576539138013
125, 28938.33, 19816.16, -78644.70, -78286.85, -59129.06, -46909.43, -67904.38, -64686.64, 0.000, 0.000, 0.000, 18:32:18.021, 1576539138021
126, 28975.28, 19884.74, -78557.23, -78494.48, -59226.76, -47360.42, -67786.55, -64588.14, 0.000, 0.000, 0.000, 18:32:18.021, 1576539138021
127, 28841.53, 19703.46, -78518.86, -77775.06, -58847.49, -46874.22, -67933.61, -64741.78, 0.108, 0.866, 0.498, 18:32:18.030, 1576539138030
128, 28766.20, 19578.54, -78627.80, -77459.95, -58702.07, -46333.85, -68099.93, -64889.26, 0.000, 0.000, 0.000, 18:32:18.030, 1576539138030
129, 28907.04, 19775.28, -78655.74, -78129.89, -59067.34, -46747.06, -67966.38, -64745.00, 0.000, 0.000, 0.000, 18:32:18.035, 1576539138035
130, 29016.18, 19939.65, -78540.09, -78509.98, -59252.04, -47321.61, -67770.87, -64567.71, 0.000, 0.000, 0.000, 18:32:18.035, 1576539138035
131, 28886.48, 19752.26, -78510.19, -77910.96, -58909.34, -46984.73, -67884.10, -64707.89, 0.000, 0.000, 0.000, 18:32:18.043, 1576539138043
132, 28741.91, 19560.46, -78625.55, -77454.80, -58678.71, -46364.58, -68096.17, -64905.95, 0.000, 0.000, 0.000, 18:32:18.043, 1576539138043
133, 28855.90, 19712.74, -78667.90, -77998.65, -58988.33, -46624.78, -68006.09, -64795.38, 0.000, 0.000, 0.000, 18:32:18.059, 1576539138059
134, 29011.67, 19918.78, -78580.82, -78538.53, -59268.04, -47280.78, -67804.17, -64606.17, 0.000, 0.000, 0.000, 18:32:18.060, 1576539138060
135, 28932.95, 19811.42, -78523.51, -78079.42, -59000.54, -47126.91, -67856.63, -64680.71, 0.000, 0.000, 0.000, 18:32:18.060, 1576539138060
136, 28766.13, 19580.44, -78603.95, -77456.75, -58676.43, -46440.69, -68061.15, -64876.43, 0.000, 0.000, 0.000, 18:32:18.060, 1576539138060
137, 28854.29, 19686.01, -78651.92, -77844.06, -58898.63, -46511.50, -68017.49, -64811.09, 0.104, 0.860, 0.496, 18:32:18.066, 1576539138066
138, 29027.34, 19917.39, -78561.75, -78490.25, -59224.54, -47194.07, -67789.09, -64590.10, 0.000, 0.000, 0.000, 18:32:18.066, 1576539138066
139, 28946.98, 19822.15, -78511.88, -78212.20, -59060.13, -47220.70, -67809.85, -64630.78, 0.000, 0.000, 0.000, 18:32:18.073, 1576539138073
140, 28796.67, 19607.75, -78560.37, -77507.29, -58689.24, -46541.07, -68022.28, -64839.12, 0.000, 0.000, 0.000, 18:32:18.073, 1576539138073
141, 28840.05, 19656.59, -78649.59, -77712.12, -58812.91, -46420.04, -68042.13, -64842.54, 0.000, 0.000, 0.000, 18:32:18.081, 1576539138081
142, 29007.82, 19875.53, -78598.21, -78431.91, -59195.48, -47087.59, -67829.96, -64635.63, 0.000, 0.000, 0.000, 18:32:18.088, 1576539138088
143, 28980.51, 19849.42, -78530.44, -78349.73, -59142.63, -47293.92, -67801.49, -64627.96, 0.000, 0.000, 0.000, 18:32:18.088, 1576539138088
144, 28815.20, 19619.73, -78553.10, -77603.94, -58746.21, -46649.92, -67997.34, -64826.49, 0.000, 0.000, 0.000, 18:32:18.096, 1576539138096
145, 28803.73, 19601.85, -78643.45, -77593.05, -58758.29, -46344.42, -68067.16, -64878.82, 0.000, 0.000, 0.000, 18:32:18.096, 1576539138096
146, 28995.80, 19849.73, -78606.97, -78333.79, -59151.34, -46946.20, -67859.29, -64659.48, 0.000, 0.000, 0.000, 18:32:18.104, 1576539138104
147, 29038.89, 19912.14, -78507.52, -78436.78, -59185.05, -47321.97, -67747.38, -64573.65, 0.104, 0.856, 0.490, 18:32:18.104, 1576539138104
148, 28864.08, 19683.91, -78520.42, -77710.13, -58798.56, -46786.71, -67933.03, -64766.75, 0.000, 0.000, 0.000, 18:32:18.110, 1576539138110
149, 28783.12, 19572.06, -78640.41, -77519.71, -58719.21, -46334.81, -68096.46, -64907.77, 0.000, 0.000, 0.000, 18:32:18.111, 1576539138111
150, 28964.26, 19803.73, -78631.22, -78213.91, -59091.33, -46823.26, -67930.62, -64732.01, 0.000, 0.000, 0.000, 18:32:18.118, 1576539138118
151, 29043.88, 19914.13, -78535.11, -78508.02, -59229.80, -47336.37, -67781.02, -64603.09, 0.000, 0.000, 0.000, 18:32:18.118, 1576539138118
152, 28888.67, 19717.28, -78519.59, -77868.98, -58880.82, -46933.52, -67921.54, -64761.16, 0.000, 0.000, 0.000, 18:32:18.126, 1576539138126
153, 28803.53, 19597.36, -78600.35, -77461.47, -58672.41, -46347.57, -68064.01, -64892.10, 0.000, 0.000, 0.000, 18:32:18.126, 1576539138126
154, 28946.80, 19775.57, -78629.97, -78057.30, -58992.96, -46675.34, -67945.19, -64753.79, 0.000, 0.000, 0.000, 18:32:18.133, 1576539138133
155, 29041.46, 19913.24, -78567.59, -78549.28, -59245.33, -47305.30, -67780.55, -64608.00, 0.000, 0.000, 0.000, 18:32:18.133, 1576539138133
156, 28917.61, 19758.70, -78531.16, -78032.98, -58960.23, -47074.94, -67868.12, -64722.60, 0.000, 0.000, 0.000, 18:32:18.140, 1576539138140
157, 28785.67, 19574.83, -78600.22, -77471.68, -58669.66, -46410.02, -68068.15, -64915.41, 0.000, 0.000, 0.000, 18:32:18.148, 1576539138148
158, 28886.70, 19701.59, -78655.16, -77933.16, -58930.62, -46566.66, -68007.33, -64831.99, 0.108, 0.856, 0.490, 18:32:18.148, 1576539138148
159, 29024.77, 19896.61, -78594.92, -78552.81, -59246.45, -47243.65, -67803.12, -64638.92, 0.000, 0.000, 0.000, 18:32:18.156, 1576539138156
160, 28944.35, 19795.15, -78525.45, -78176.79, -59032.00, -47185.31, -67827.51, -64688.43, 0.000, 0.000, 0.000, 18:32:18.156, 1576539138156
161, 28798.01, 19579.99, -78590.66, -77508.23, -58682.02, -46496.34, -68045.64, -64900.88, 0.000, 0.000, 0.000, 18:32:18.163, 1576539138163
162, 28861.98, 19664.51, -78656.99, -77793.05, -58848.65, -46465.77, -68033.37, -64865.41, 0.000, 0.000, 0.000, 18:32:18.163, 1576539138163
163, 29022.35, 19892.45, -78602.12, -78493.40, -59215.02, -47143.71, -67820.09, -64656.93, 0.000, 0.000, 0.000, 18:32:18.170, 1576539138170
164, 28976.71, 19848.97, -78525.45, -78316.87, -59099.51, -47275.14, -67801.58, -64668.71, 0.000, 0.000, 0.000, 18:32:18.170, 1576539138170
165, 28795.08, 19606.26, -78571.56, -77586.08, -58712.91, -46609.73, -68014.14, -64876.20, 0.000, 0.000, 0.000, 18:32:18.179, 1576539138179
166, 28844.90, 19635.45, -78638.66, -77660.87, -58770.09, -46386.86, -68044.99, -64881.05, 0.000, 0.000, 0.000, 18:32:18.179, 1576539138179
167, 29036.77, 19887.91, -78590.20, -78385.76, -59149.11, -47017.47, -67824.66, -64670.90, 0.000, 0.000, 0.000, 18:32:18.186, 1576539138186
168, 29013.50, 19890.12, -78523.93, -78407.23, -59145.04, -47315.38, -67770.22, -64637.93, 0.108, 0.854, 0.498, 18:32:18.186, 1576539138186
169, 28829.97, 19655.25, -78551.96, -77675.17, -58752.79, -46727.15, -67968.45, -64838.83, 0.000, 0.000, 0.000, 18:32:18.193, 1576539138193
170, 28820.23, 19614.97, -78631.73, -77551.48, -58706.32, -46340.98, -68060.27, -64902.22, 0.000, 0.000, 0.000, 18:32:18.193, 1576539138193
171, 28974.03, 19817.77, -78644.21, -78280.21, -59096.89, -46880.05, -67903.46, -64743.99, 0.000, 0.000, 0.000, 18:32:18.200, 1576539138200
172, 29032.46, 19906.78, -78544.63, -78501.47, -59208.45, -47351.34, -67779.80, -64645.42, 0.000, 0.000, 0.000, 18:32:18.208, 1576539138208
173, 28888.09, 19715.71, -78504.69, -77798.57, -58826.04, -46887.41, -67918.10, -64789.19, 0.000, 0.000, 0.000, 18:32:18.209, 1576539138209
174, 28808.56, 19590.95, -78614.03, -77478.90, -58670.18, -46349.18, -68078.07, -64925.27, 0.000, 0.000, 0.000, 18:32:18.215, 1576539138215
175, 28966.43, 19797.97, -78633.08, -78136.94, -59023.54, -46747.46, -67938.41, -64772.43, 0.000, 0.000, 0.000, 18:32:18.215, 1576539138215
176, 29062.92, 19940.97, -78536.96, -78541.81, -59218.02, -47322.48, -67762.75, -64614.73, 0.000, 0.000, 0.000, 18:32:18.223, 1576539138223
177, 28921.88, 19757.44, -78501.67, -77953.83, -58898.43, -47007.21, -67882.98, -64747.10, 0.000, 0.000, 0.000, 18:32:18.223, 1576539138223
178, 28783.93, 19563.77, -78607.95, -77466.30, -58658.66, -46376.09, -68083.37, -64933.47, 0.110, 0.866, 0.494, 18:32:18.231, 1576539138231
179, 28900.87, 19716.16, -78660.21, -78005.59, -58960.48, -46617.94, -67997.31, -64832.89, 0.000, 0.000, 0.000, 18:32:18.231, 1576539138231
180, 29052.15, 19927.83, -78561.71, -78553.66, -59243.14, -47284.76, -67783.98, -64631.30, 0.000, 0.000, 0.000, 18:32:18.237, 1576539138237
181, 28933.51, 19770.54, -78526.99, -78113.27, -58995.10, -47140.81, -67864.32, -64731.01, 0.000, 0.000, 0.000, 18:32:18.237, 1576539138237
182, 28803.44, 19586.25, -78579.84, -77480.51, -58674.20, -46457.61, -68052.01, -64909.62, 0.000, 0.000, 0.000, 18:32:18.248, 1576539138248
183, 28867.95, 19679.39, -78655.38, -77846.05, -58880.44, -46494.51, -68018.88, -64866.50, 0.000, 0.000, 0.000, 18:32:18.248, 1576539138248
184, 29019.58, 19888.31, -78608.78, -78523.27, -59232.77, -47174.85, -67815.80, -64667.35, 0.000, 0.000, 0.000, 18:32:18.254, 1576539138254
185, 28980.06, 19832.88, -78514.03, -78242.93, -59073.60, -47224.12, -67805.20, -64679.87, 0.000, 0.000, 0.000, 18:32:18.254, 1576539138254
186, 28827.13, 19629.73, -78543.91, -77519.34, -58696.84, -46556.25, -68012.89, -64882.44, 0.000, 0.000, 0.000, 18:32:18.261, 1576539138261
187, 28850.76, 19660.86, -78633.70, -77697.70, -58812.87, -46425.80, -68048.88, -64895.83, 0.000, 0.000, 0.000, 18:32:18.272, 1576539138272
188, 29001.19, 19874.14, -78601.16, -78432.18, -59200.02, -47083.93, -67844.49, -64693.39, 0.108, 0.868, 0.492, 18:32:18.273, 1576539138273
189, 28993.63, 19870.16, -78521.50, -78363.96, -59148.57, -47307.40, -67792.70, -64665.65, 0.000, 0.000, 0.000, 18:32:18.275, 1576539138275
190, 28830.80, 19639.74, -78555.41, -77619.09, -58756.05, -46681.84, -67994.16, -64869.97, 0.000, 0.000, 0.000, 18:32:18.275, 1576539138275
191, 28834.29, 19627.83, -78634.38, -77581.80, -58750.60, -46358.05, -68059.63, -64908.05, 0.000, 0.000, 0.000, 18:32:18.284, 1576539138284
192, 29004.92, 19856.82, -78616.20, -78311.34, -59134.98, -46938.62, -67869.93, -64725.20, 0.000, 0.000, 0.000, 18:32:18.284, 1576539138284
193, 29027.90, 19913.26, -78537.63, -78461.13, -59193.99, -47336.79, -67781.13, -64657.92, 0.000, 0.000, 0.000, 18:32:18.291, 1576539138291
194, 28886.14, 19702.64, -78513.25, -77733.82, -58797.11, -46813.40, -67929.68, -64796.43, 0.000, 0.000, 0.000, 18:32:18.291, 1576539138291
195, 28810.71, 19594.59, -78621.01, -77497.09, -58684.91, -46330.07, -68066.58, -64920.39, 0.000, 0.000, 0.000, 18:32:18.298, 1576539138298
196, 28955.34, 19795.35, -78644.50, -78199.81, -59067.07, -46801.94, -67919.88, -64769.50, 0.000, 0.000, 0.000, 18:32:18.298, 1576539138298
197, 29019.78, 19895.13, -78569.20, -78542.73, -59235.50, -47341.51, -67783.05, -64653.47, 0.000, 0.000, 0.000, 18:32:18.306, 1576539138306
198, 28884.69, 19712.96, -78533.90, -77906.63, -58888.84, -46962.40, -67914.63, -64798.51, 0.108, 0.866, 0.492, 18:32:18.306, 1576539138306
199, 28795.15, 19587.53, -78608.31, -77476.75, -58674.94, -46371.51, -68078.63, -64944.27, 0.000, 0.000, 0.000, 18:32:18.314, 1576539138314
200, 28937.35, 19772.75, -78623.35, -78050.66, -58985.25, -46674.87, -67949.10, -64798.75, 0.000, 0.000, 0.000, 18:32:18.314, 1576539138314
201, 29029.97, 19907.02, -78556.97, -78550.62, -59237.17, -47297.52, -67784.30, -64649.07, 0.000, 0.000, 0.000, 18:32:18.320, 1576539138320
202, 28921.70, 19766.07, -78517.16, -78048.65, -58963.74, -47084.15, -67879.16, -64755.37, 0.000, 0.000, 0.000, 18:32:18.320, 1576539138320
203, 28796.71, 19582.18, -78588.87, -77468.77, -58665.19, -46413.13, -68065.30, -64931.23, 0.000, 0.000, 0.000, 18:32:18.327, 1576539138327
204, 28899.42, 19710.42, -78647.88, -77912.37, -58917.95, -46546.99, -68002.86, -64858.48, 0.000, 0.000, 0.000, 18:32:18.336, 1576539138336
205, 29050.79, 19916.12, -78566.58, -78531.66, -59237.73, -47230.48, -67787.79, -64659.73, 0.000, 0.000, 0.000, 18:32:18.336, 1576539138336
206, 28971.64, 19811.80, -78511.70, -78188.34, -59040.16, -47197.83, -67820.78, -64715.36, 0.000, 0.000, 0.000, 18:32:18.342, 1576539138342
207, 28819.96, 19598.25, -78567.77, -77500.70, -58684.12, -46510.04, -68025.56, -64904.37, 0.000, 0.000, 0.000, 18:32:18.342, 1576539138342
208, 28876.82, 19679.39, -78634.64, -77758.01, -58826.50, -46452.58, -68022.68, -64876.25, 0.000, 0.000, 0.000, 18:32:18.350, 1576539138350
209, 29028.54, 19894.55, -78593.09, -78475.23, -59206.26, -47125.05, -67831.10, -64687.04, 0.108, 0.862, 0.496, 18:32:18.350, 1576539138350
210, 29017.62, 19870.43, -78505.20, -78323.44, -59111.24, -47273.20, -67802.47, -64681.79, 0.000, 0.000, 0.000, 18:32:18.358, 1576539138358
211, 28840.97, 19644.90, -78543.45, -77586.10, -58721.43, -46614.29, -68003.84, -64876.54, 0.000, 0.000, 0.000, 18:32:18.358, 1576539138358
212, 28848.32, 19639.09, -78641.46, -77649.20, -58773.17, -46373.05, -68058.18, -64909.33, 0.000, 0.000, 0.000, 18:32:18.365, 1576539138365
213, 29046.83, 19889.39, -78595.80, -78380.68, -59155.34, -47002.70, -67836.13, -64695.25, 0.000, 0.000, 0.000, 18:32:18.365, 1576539138365
214, 29038.22, 19903.69, -78527.66, -78427.59, -59161.24, -47320.43, -67764.77, -64653.49, 0.000, 0.000, 0.000, 18:32:18.373, 1576539138373
215, 28860.06, 19672.48, -78535.49, -77698.15, -58776.44, -46742.52, -67957.30, -64844.84, 0.000, 0.000, 0.000, 18:32:18.373, 1576539138373
216, 28842.11, 19632.54, -78615.04, -77541.64, -58709.78, -46330.63, -68055.67, -64919.54, 0.000, 0.000, 0.000, 18:32:18.381, 1576539138381
217, 29002.86, 19839.21, -78617.92, -78261.93, -59093.56, -46862.75, -67882.88, -64743.52, 0.000, 0.000, 0.000, 18:32:18.381, 1576539138381
218, 29059.88, 19912.10, -78542.71, -78513.67, -59205.77, -47339.34, -67751.94, -64636.41, 0.000, 0.000, 0.000, 18:32:18.390, 1576539138390
219, 28896.51, 19705.95, -78529.32, -77834.76, -58833.19, -46884.28, -67897.91, -64791.89, 0.106, 0.858, 0.496, 18:32:18.397, 1576539138397
220, 28784.64, 19562.56, -78634.28, -77504.98, -58675.92, -46332.10, -68072.30, -64944.27, 0.000, 0.000, 0.000, 18:32:18.397, 1576539138397
221, 28932.99, 19752.55, -78656.99, -78149.74, -59034.22, -46720.17, -67942.38, -64801.17, 0.000, 0.000, 0.000, 18:32:18.403, 1576539138403
222, 29032.03, 19895.13, -78568.81, -78578.27, -59249.69, -47316.54, -67777.17, -64660.40, 0.000, 0.000, 0.000, 18:32:18.403, 1576539138403
223, 28912.65, 19734.00, -78524.02, -78005.57, -58936.18, -47028.11, -67884.34, -64781.79, 0.000, 0.000, 0.000, 18:32:18.413, 1576539138413
224, 28797.56, 19569.22, -78602.23, -77481.56, -58673.62, -46388.56, -68065.20, -64948.13, 0.000, 0.000, 0.000, 18:32:18.414, 1576539138414
225, 28904.18, 19712.52, -78654.38, -77997.05, -58960.46, -46599.27, -67994.95, -64860.13, 0.000, 0.000, 0.000, 18:32:18.418, 1576539138418
226, 29056.13, 19922.13, -78566.52, -78571.37, -59256.86, -47267.61, -67796.28, -64672.02, 0.000, 0.000, 0.000, 18:32:18.418, 1576539138418
227, 28970.47, 19814.60, -78495.91, -78121.67, -59000.27, -47147.92, -67823.39, -64723.18, 0.000, 0.000, 0.000, 18:32:18.425, 1576539138425
228, 28808.67, 19595.39, -78583.79, -77483.95, -58674.85, -46460.47, -68048.59, -64941.88, 0.000, 0.000, 0.000, 18:32:18.425, 1576539138425
229, 28888.47, 19678.79, -78656.26, -77840.88, -58881.82, -46487.47, -68029.23, -64894.31, 0.112, 0.860, 0.496, 18:32:18.433, 1576539138433
230, 29032.08, 19877.94, -78605.92, -78531.38, -59242.07, -47177.69, -67822.08, -64696.38, 0.000, 0.000, 0.000, 18:32:18.434, 1576539138434
231, 28987.89, 19834.18, -78519.15, -78288.50, -59092.02, -47249.38, -67810.34, -64709.59, 0.000, 0.000, 0.000, 18:32:18.441, 1576539138441
232, 28835.89, 19631.54, -78549.66, -77552.82, -58701.87, -46573.43, -68004.60, -64892.50, 0.000, 0.000, 0.000, 18:32:18.442, 1576539138442
233, 28854.51, 19653.35, -78648.73, -77710.60, -58803.05, -46406.15, -68047.20, -64914.96, 0.000, 0.000, 0.000, 18:32:18.447, 1576539138447
234, 29027.07, 19873.65, -78619.35, -78453.88, -59191.69, -47059.96, -67844.29, -64721.08, 0.000, 0.000, 0.000, 18:32:18.455, 1576539138455
235, 29012.43, 19865.38, -78543.91, -78420.96, -59161.15, -47318.15, -67793.09, -64695.58, 0.000, 0.000, 0.000, 18:32:18.455, 1576539138455
236, 28838.53, 19632.01, -78570.05, -77675.59, -58767.47, -46704.10, -67996.55, -64900.39, 0.000, 0.000, 0.000, 18:32:18.463, 1576539138463
237, 28823.31, 19610.88, -78661.93, -77626.69, -58760.75, -46372.54, -68086.34, -64964.25, 0.000, 0.000, 0.000, 18:32:18.463, 1576539138463
238, 29004.85, 19840.95, -78640.50, -78356.38, -59145.42, -46948.88, -67881.82, -64755.28, 0.000, 0.000, 0.000, 18:32:18.470, 1576539138470
239, 29058.23, 19905.35, -78539.24, -78505.45, -59198.53, -47356.08, -67753.92, -64656.11, 0.110, 0.858, 0.490, 18:32:18.470, 1576539138470
240, 28899.15, 19695.42, -78523.17, -77771.28, -58803.37, -46837.01, -67912.66, -64827.07, 0.000, 0.000, 0.000, 18:32:18.477, 1576539138477
241, 28810.03, 19575.95, -78641.62, -77531.45, -58694.85, -46346.14, -68079.84, -64976.86, 0.000, 0.000, 0.000, 18:32:18.477, 1576539138477
242, 28963.48, 19779.93, -78666.36, -78231.64, -59075.64, -46806.56, -67949.08, -64838.81, 0.000, 0.000, 0.000, 18:32:18.485, 1576539138485
243, 29058.09, 19900.72, -78565.95, -78577.22, -59242.92, -47356.53, -67779.36, -64688.98, 0.000, 0.000, 0.000, 18:32:18.485, 1576539138485
244, 28908.49, 19707.51, -78540.77, -77947.77, -58902.37, -46988.19, -67899.75, -64826.18, 0.000, 0.000, 0.000, 18:32:18.492, 1576539138492
245, 28822.89, 19583.28, -78610.99, -77493.54, -58684.88, -46381.14, -68068.39, -64971.02, 0.000, 0.000, 0.000, 18:32:18.492, 1576539138492
246, 28949.82, 19757.13, -78644.92, -78064.02, -58990.52, -46671.60, -67963.38, -64850.63, 0.000, 0.000, 0.000, 18:32:18.500, 1576539138500
247, 29071.19, 19920.84, -78560.57, -78579.16, -59242.43, -47308.96, -67769.50, -64674.73, 0.000, 0.000, 0.000, 18:32:18.500, 1576539138500
248, 28969.58, 19777.07, -78505.41, -78087.07, -58963.16, -47109.59, -67846.95, -64772.71, 0.000, 0.000, 0.000, 18:32:18.508, 1576539138508
249, 28840.97, 19595.39, -78588.26, -77498.99, -58670.73, -46442.05, -68062.73, -64972.12, 0.114, 0.856, 0.498, 18:32:18.515, 1576539138515
250, 28924.12, 19714.82, -78648.21, -77919.25, -58917.34, -46551.48, -67997.11, -64884.52, 0.000, 0.000, 0.000, 18:32:18.515, 1576539138515
251, 29043.28, 19895.09, -78585.20, -78560.50, -59241.35, -47228.92, -67775.00, -64690.04, 0.000, 0.000, 0.000, 18:32:18.525, 1576539138525
252, 28956.37, 19797.81, -78515.84, -78235.39, -59054.69, -47215.62, -67810.85, -64750.63, 0.000, 0.000, 0.000, 18:32:18.525, 1576539138525
253, 28803.78, 19587.86, -78574.76, -77551.70, -58697.49, -46537.74, -68033.25, -64949.50, 0.000, 0.000, 0.000, 18:32:18.531, 1576539138531
254, 28843.32, 19631.04, -78655.85, -77792.31, -58837.93, -46460.94, -68029.45, -64922.16, 0.000, 0.000, 0.000, 18:32:18.531, 1576539138531
255, 29005.61, 19852.71, -78617.90, -78512.20, -59221.14, -47139.94, -67818.66, -64722.43, 0.000, 0.000, 0.000, 18:32:18.537, 1576539138537
0, 28985.99, 19846.54, -78519.51, -78368.37, -59122.42, -47317.46, -67764.97, -64696.56, 0.000, 0.000, 0.000, 18:32:18.537, 1576539138537
1, 28806.68, 19610.44, -78561.66, -77624.14, -58728.91, -46666.29, -67980.28, -64911.43, 0.000, 0.000, 0.000, 18:32:18.544, 1576539138544
2, 28808.02, 19603.82, -78652.08, -77662.52, -58767.85, -46400.03, -68047.45, -64948.16, 0.000, 0.000, 0.000, 18:32:18.544, 1576539138544
3, 28975.01, 19838.58, -78624.36, -78405.80, -59158.49, -47021.09, -67852.20, -64749.13, 0.110, 0.854, 0.502, 18:32:18.552, 1576539138552
4, 28987.64, 19872.98, -78545.55, -78476.32, -59171.57, -47365.60, -67764.95, -64692.29, 0.000, 0.000, 0.000, 18:32:18.552, 1576539138552
5, 28809.92, 19629.30, -78567.19, -77751.88, -58786.89, -46804.60, -67953.21, -64886.35, 0.000, 0.000, 0.000, 18:32:18.560, 1576539138560
6, 28770.23, 19558.85, -78660.34, -77579.15, -58720.13, -46376.79, -68069.82, -64979.27, 0.000, 0.000, 0.000, 18:32:18.560, 1576539138560
7, 28970.47, 19797.14, -78647.25, -78295.01, -59102.23, -46889.82, -67892.84, -64789.64, 0.000, 0.000, 0.000, 18:32:18.567, 1576539138567
8, 29042.43, 19899.00, -78538.93, -78544.19, -59220.41, -47380.38, -67744.83, -64667.28, 0.000, 0.000, 0.000, 18:32:18.567, 1576539138567
9, 28862.11, 19688.69, -78530.41, -77874.64, -58857.75, -46938.59, -67898.27, -64834.18, 0.000, 0.000, 0.000, 18:32:18.574, 1576539138574
10, 28771.68, 19565.87, -78630.23, -77524.14, -58684.46, -46385.55, -68067.92, -64979.85, 0.000, 0.000, 0.000, 18:32:18.582, 1576539138582
11, 28914.48, 19743.38, -78652.70, -78152.70, -59026.20, -46755.67, -67948.36, -64849.88, 0.000, 0.000, 0.000, 18:32:18.582, 1576539138582
12, 29012.43, 19888.02, -78567.32, -78599.95, -59250.81, -47361.38, -67781.39, -64702.02, 0.000, 0.000, 0.000, 18:32:18.590, 1576539138590
13, 28881.31, 19719.38, -78533.34, -78043.46, -58942.22, -47084.80, -67881.04, -64820.93, 0.000, 0.000, 0.000, 18:32:18.590, 1576539138590
14, 28781.87, 19570.63, -78602.81, -77508.56, -58671.07, -46435.32, -68054.16, -64977.10, 0.112, 0.856, 0.504, 18:32:18.596, 1576539138596
15, 28895.93, 19708.05, -78652.30, -78001.28, -58944.36, -46626.36, -67979.79, -64886.57, 0.000, 0.000, 0.000, 18:32:18.597, 1576539138597
16, 29020.21, 19897.52, -78594.23, -78595.28, -59252.39, -47291.04, -67793.22, -64715.92, 0.000, 0.000, 0.000, 18:32:18.604, 1576539138604
17, 28961.40, 19805.34, -78509.98, -78177.15, -59015.29, -47199.55, -67821.41, -64760.36, 0.000, 0.000, 0.000, 18:32:18.605, 1576539138605
18, 28798.46, 19569.18, -78594.03, -77522.46, -58672.28, -46507.63, -68047.73, -64983.02, 0.000, 0.000, 0.000, 18:32:18.612, 1576539138612
19, 28857.78, 19650.83, -78677.71, -77863.28, -58871.01, -46519.93, -68037.14, -64947.73, 0.000, 0.000, 0.000, 18:32:18.612, 1576539138612
20, 29024.59, 19885.86, -78616.49, -78554.24, -59232.46, -47214.97, -67821.45, -64735.57, 0.000, 0.000, 0.000, 18:32:18.620, 1576539138620
21, 28999.91, 19854.23, -78512.82, -78315.86, -59081.40, -47301.30, -67790.24, -64723.83, 0.000, 0.000, 0.000, 18:32:18.620, 1576539138620
22, 28835.98, 19629.81, -78553.39, -77579.52, -58691.34, -46617.55, -67987.57, -64924.02, 0.000, 0.000, 0.000, 18:32:18.627, 1576539138627
23, 28833.48, 19636.32, -78656.91, -77716.43, -58789.38, -46431.34, -68050.42, -64971.02, 0.000, 0.000, 0.000, 18:32:18.627, 1576539138627
24, 29009.12, 19866.56, -78621.79, -78463.94, -59184.09, -47089.13, -67857.93, -64779.00, 0.106, 0.858, 0.502, 18:32:18.635, 1576539138635
25, 29011.45, 19882.79, -78523.13, -78438.02, -59149.73, -47358.27, -67779.92, -64719.56, 0.000, 0.000, 0.000, 18:32:18.641, 1576539138641
26, 28847.12, 19655.34, -78534.02, -77679.28, -58750.38, -46742.55, -67967.30, -64905.26, 0.000, 0.000, 0.000, 18:32:18.642, 1576539138642
27, 28825.79, 19618.55, -78626.62, -77600.56, -58723.15, -46385.05, -68067.14, -64978.42, 0.000, 0.000, 0.000, 18:32:18.648, 1576539138648
28, 28975.73, 19827.36, -78634.20, -78350.06, -59124.96, -46955.61, -67908.38, -64813.38, 0.000, 0.000, 0.000, 18:32:18.649, 1576539138649
29, 29051.50, 19908.99, -78526.84, -78526.28, -59200.87, -47388.65, -67769.95, -64693.99, 0.000, 0.000, 0.000, 18:32:18.657, 1576539138657
30, 28900.45, 19688.87, -78515.95, -77810.69, -58818.84, -46885.51, -67926.84, -64862.17, 0.000, 0.000, 0.000, 18:32:18.657, 1576539138657
31, 28810.46, 19571.75, -78618.33, -77541.59, -58698.07, -46372.67, -68090.54, -65006.34, 0.000, 0.000, 0.000, 18:32:18.665, 1576539138665
32, 28971.35, 19792.54, -78608.63, -78208.05, -59058.45, -46820.02, -67923.46, -64825.80, 0.000, 0.000, 0.000, 18:32:18.665, 1576539138665
33, 29038.80, 19901.48, -78528.65, -78571.59, -59230.55, -47382.99, -67763.80, -64692.56, 0.000, 0.000, 0.000, 18:32:18.673, 1576539138673
34, 28902.46, 19722.11, -78501.78, -77954.99, -58900.06, -47029.68, -67893.73, -64834.79, 0.112, 0.860, 0.502, 18:32:18.673, 1576539138673
35, 28781.07, 19553.86, -78607.44, -77497.45, -58674.49, -46403.72, -68082.20, -65003.59, 0.000, 0.000, 0.000, 18:32:18.679, 1576539138679
36, 28890.10, 19700.42, -78670.98, -78081.77, -58999.44, -46686.18, -68003.03, -64914.05, 0.000, 0.000, 0.000, 18:32:18.679, 1576539138679
37, 29036.44, 19901.90, -78567.12, -78600.45, -59263.05, -47347.70, -67784.99, -64709.17, 0.000, 0.000, 0.000, 18:32:18.687, 1576539138687
38, 28953.85, 19791.02, -78496.24, -78111.43, -58981.40, -47165.82, -67837.97, -64785.84, 0.000, 0.000, 0.000, 18:32:18.687, 1576539138687
39, 28820.52, 19604.65, -78570.60, -77501.43, -58659.16, -46479.24, -68036.07, -64968.05, 0.000, 0.000, 0.000, 18:32:18.695, 1576539138695
40, 28908.76, 19702.59, -78644.66, -77902.40, -58891.17, -46567.64, -67996.48, -64906.85, 0.000, 0.000, 0.000, 18:32:18.702, 1576539138702
41, 29056.62, 19914.91, -78586.25, -78549.26, -59228.70, -47256.41, -67791.68, -64722.89, 0.000, 0.000, 0.000, 18:32:18.702, 1576539138702
42, 28985.72, 19832.77, -78523.66, -78249.12, -59048.08, -47259.43, -67801.29, -64752.22, 0.000, 0.000, 0.000, 18:32:18.709, 1576539138709
43, 28833.41, 19610.32, -78575.19, -77553.45, -58683.23, -46563.51, -68012.11, -64945.81, 0.000, 0.000, 0.000, 18:32:18.709, 1576539138709
44, 28865.58, 19644.93, -78673.66, -77784.80, -58822.70, -46458.59, -68052.74, -64968.90, 0.108, 0.858, 0.498, 18:32:18.718, 1576539138718
45, 29033.89, 19886.53, -78620.18, -78506.59, -59196.94, -47129.77, -67841.59, -64756.22, 0.000, 0.000, 0.000, 18:32:18.719, 1576539138719
46, 29002.57, 19869.40, -78529.86, -78381.20, -59100.58, -47305.21, -67781.59, -64726.49, 0.000, 0.000, 0.000, 18:32:18.724, 1576539138724
47, 28817.86, 19610.48, -78571.79, -77642.91, -58708.60, -46652.58, -67986.00, -64941.23, 0.000, 0.000, 0.000, 18:32:18.724, 1576539138724
48, 28804.56, 19574.45, -78684.42, -77680.63, -58745.21, -46370.52, -68079.92, -65011.90, 0.000, 0.000, 0.000, 18:32:18.732, 1576539138732
49, 28992.02, 19825.24, -78655.92, -78423.30, -59139.20, -46987.63, -67882.58, -64810.54, 0.000, 0.000, 0.000, 18:32:18.732, 1576539138732
50, 28993.43, 19853.91, -78567.59, -78505.38, -59165.42, -47345.82, -67790.89, -64748.71, 0.000, 0.000, 0.000, 18:32:18.740, 1576539138740
51, 28818.62, 19614.19, -78578.70, -77793.77, -58784.10, -46794.36, -67990.54, -64951.86, 0.000, 0.000, 0.000, 18:32:18.740, 1576539138740
52, 28782.38, 19546.11, -78661.75, -77613.68, -58705.60, -46357.16, -68112.73, -65048.25, 0.000, 0.000, 0.000, 18:32:18.748, 1576539138748
53, 28950.16, 19768.80, -78659.77, -78312.51, -59080.31, -46860.27, -67938.23, -64870.21, 0.000, 0.000, 0.000, 18:32:18.748, 1576539138748
54, 28999.00, 19862.05, -78584.84, -78591.77, -59216.21, -47367.28, -67802.77, -64752.18, 0.108, 0.860, 0.492, 18:32:18.754, 1576539138754
55, 28866.03, 19675.93, -78561.69, -77936.17, -58861.62, -46950.38, -67940.43, -64891.29, 0.000, 0.000, 0.000, 18:32:18.761, 1576539138761
56, 28791.21, 19555.27, -78637.32, -77542.73, -58669.39, -46380.18, -68098.97, -65031.41, 0.000, 0.000, 0.000, 18:32:18.761, 1576539138761
57, 28930.73, 19744.79, -78662.85, -78145.70, -59000.94, -46734.14, -67965.70, -64892.97, 0.000, 0.000, 0.000, 18:32:18.769, 1576539138769
58, 29032.54, 19896.25, -78585.13, -78604.02, -59229.44, -47342.18, -67788.23, -64735.39, 0.000, 0.000, 0.000, 18:32:18.769, 1576539138769
59, 28909.66, 19739.72, -78542.77, -78058.08, -58927.60, -47075.57, -67879.43, -64846.70, 0.000, 0.000, 0.000, 18:32:18.776, 1576539138776
60, 28777.83, 19549.37, -78633.01, -77520.18, -58661.12, -46414.91, -68089.24, -65039.71, 0.000, 0.000, 0.000, 18:32:18.776, 1576539138776
61, 28921.95, 19717.50, -78662.18, -77997.39, -58928.67, -46604.14, -68002.90, -64935.19, 0.000, 0.000, 0.000, 18:32:18.784, 1576539138784
62, 29063.03, 19920.48, -78582.02, -78584.91, -59219.69, -47280.24, -67787.27, -64737.42, 0.000, 0.000, 0.000, 18:32:18.784, 1576539138784
63, 28951.52, 19793.45, -78536.74, -78208.44, -59003.46, -47199.68, -67845.79, -64820.19, 0.000, 0.000, 0.000, 18:32:18.792, 1576539138792
64, 28797.58, 19575.01, -78600.45, -77552.64, -58667.02, -46513.42, -68056.77, -65026.56, 0.000, 0.000, 0.000, 18:32:18.792, 1576539138792
65, 28841.28, 19621.75, -78690.52, -77874.08, -58851.49, -46503.74, -68061.82, -65012.66, 0.106, 0.866, 0.490, 18:32:18.800, 1576539138800
66, 29019.13, 19854.56, -78627.31, -78565.53, -59219.36, -47195.28, -67848.61, -64804.41, 0.000, 0.000, 0.000, 18:32:18.800, 1576539138800
67, 28983.71, 19819.47, -78538.30, -78359.49, -59093.59, -47306.84, -67821.25, -64797.21, 0.000, 0.000, 0.000, 18:32:18.806, 1576539138806
68, 28820.41, 19600.38, -78573.20, -77626.09, -58703.19, -46636.67, -68026.37, -65003.39, 0.000, 0.000, 0.000, 18:32:18.806, 1576539138806
69, 28836.12, 19609.43, -78664.26, -77744.41, -58784.57, -46434.32, -68088.82, -65047.17, 0.000, 0.000, 0.000, 18:32:18.813, 1576539138813
70, 29014.13, 19848.59, -78622.30, -78477.84, -59174.70, -47076.48, -67873.30, -64832.57, 0.000, 0.000, 0.000, 18:32:18.813, 1576539138813
71, 29035.72, 19878.21, -78519.48, -78463.41, -59143.83, -47359.97, -67780.57, -64763.57, 0.000, 0.000, 0.000, 18:32:18.822, 1576539138822
72, 28859.03, 19655.92, -78521.25, -77709.32, -58731.13, -46745.25, -67968.50, -64955.17, 0.000, 0.000, 0.000, 18:32:18.829, 1576539138829
73, 28802.57, 19575.01, -78640.90, -77621.62, -58709.47, -46368.27, -68101.09, -65065.25, 0.000, 0.000, 0.000, 18:32:18.829, 1576539138829
74, 28970.83, 19798.17, -78647.07, -78373.17, -59121.37, -46935.13, -67940.45, -64906.27, 0.000, 0.000, 0.000, 18:32:18.836, 1576539138836
75, 29054.29, 19913.57, -78508.24, -78542.77, -59193.95, -47380.96, -67768.52, -64757.85, 0.112, 0.860, 0.498, 18:32:18.836, 1576539138836
76, 28867.48, 19671.68, -78518.37, -77842.77, -58811.77, -46885.18, -67941.50, -64938.27, 0.000, 0.000, 0.000, 18:32:18.844, 1576539138844
77, 28790.74, 19562.02, -78635.38, -77564.09, -58685.00, -46368.69, -68112.96, -65086.40, 0.000, 0.000, 0.000, 18:32:18.844, 1576539138844
78, 28919.78, 19741.31, -78673.24, -78240.38, -59057.98, -46801.78, -67992.15, -64957.79, 0.000, 0.000, 0.000, 18:32:18.852, 1576539138852
79, 29003.69, 19865.76, -78590.56, -78631.69, -59255.68, -47379.04, -67836.09, -64816.19, 0.000, 0.000, 0.000, 18:32:18.852, 1576539138852
80, 28889.45, 19711.29, -78545.75, -78023.52, -58925.23, -47041.12, -67939.71, -64927.08, 0.000, 0.000, 0.000, 18:32:18.859, 1576539138859
81, 28804.27, 19581.96, -78607.46, -77530.69, -58668.34, -46408.19, -68093.76, -65064.61, 0.000, 0.000, 0.000, 18:32:18.859, 1576539138859
82, 28943.92, 19735.70, -78642.33, -78069.74, -58960.48, -46663.00, -67988.77, -64946.03, 0.000, 0.000, 0.000, 18:32:18.867, 1576539138867
83, 29060.49, 19903.80, -78575.55, -78612.34, -59239.18, -47312.94, -67803.59, -64776.20, 0.000, 0.000, 0.000, 18:32:18.867, 1576539138867
84, 28959.84, 19782.28, -78512.00, -78149.25, -58978.52, -47148.41, -67860.36, -64848.73, 0.000, 0.000, 0.000, 18:32:18.876, 1576539138876
85, 28806.05, 19578.67, -78591.34, -77531.80, -58661.41, -46461.72, -68072.39, -65048.65, 0.108, 0.852, 0.506, 18:32:18.876, 1576539138876
86, 28885.74, 19683.75, -78657.55, -77919.09, -58881.73, -46534.97, -68030.57, -64990.06, 0.000, 0.000, 0.000, 18:32:18.882, 1576539138882
87, 29071.88, 19917.88, -78581.89, -78569.71, -59211.67, -47228.07, -67809.67, -64782.98, 0.000, 0.000, 0.000, 18:32:18.889, 1576539138889
88, 29011.29, 19852.86, -78491.81, -78271.52, -59032.45, -47252.12, -67811.08, -64799.76, 0.000, 0.000, 0.000, 18:32:18.889, 1576539138889
89, 28821.23, 19599.48, -78557.38, -77572.38, -58665.86, -46557.09, -68032.36, -65017.73, 0.000, 0.000, 0.000, 18:32:18.896, 1576539138896
